time,EEG Fp1-REF,EEG Fp2-REF,EEG F3-REF,EEG F4-REF,EEG C3-REF,EEG C4-REF,EEG P3-REF,EEG P4-REF,EEG O1-REF,EEG O2-REF,EEG F7-REF,EEG F8-REF,EEG T3-REF,EEG T4-REF,EEG T5-REF,EEG T6-REF,EEG Fz-REF,EEG Cz-REF,EEG Pz-REF,ECG EKG-REF,Resp Effort-REF
0,0.0034999999998035487,0.0034999999998035487,0.0034999999998035487,0.0034999999998035487,0.0034999999998035487,0.0034999999998035487,0.0034999999998035487,0.0034999999998035487,0.0034999999998035487,0.0034999999998035487,0.0034999999998035487,0.0034999999998035487,0.0034999999998035487,0.0034999999998035487,0.0034999999998035487,0.0034999999998035487,0.0034999999998035487,0.0034999999998035487,0.0034999999998035487,0.30867554246630946,-0.7594388561664611
4,0.0034999999998035487,0.0034999999998035487,0.0034999999998035487,0.0034999999998035487,0.0034999999998035487,0.0034999999998035487,0.30867554246630946,0.0034999999998035487,0.15608777123305648,-0.4542633136999553,-0.1490877712334494,-0.1490877712334494,-0.1490877712334494,-0.3016755424667024,0.0034999999998035487,-0.4542633136999553,0.15608777123305648,0.0034999999998035487,0.30867554246630946,5.191484221930403,-16.17080375072501
8,0.0034999999998035487,-0.4542633136999553,0.30867554246630946,-0.3016755424667024,0.6138510849328154,-0.1490877712334494,1.834553254798839,-0.1490877712334494,0.6138510849328154,-1.827553254799232,-1.0646143986329673,-1.0646143986329673,-1.0646143986329673,-1.369789941099473,0.4612633136995624,-1.674965483565979,0.4612633136995624,0.15608777123305648,1.3767899410990798,27.469298821985337,-85.90341520432159
12,-0.4542633136999553,-1.369789941099473,0.6138510849328154,-0.7594388561664611,1.6819654835655862,-0.3016755424667024,4.123369823297634,-0.4542633136999553,1.0716143986325743,-3.9637820520647726,-2.285316568498991,-2.437904339732244,-2.285316568498991,-2.8956676534320023,0.7664388561660683,-3.5060187383650145,1.0716143986325743,0.15608777123305648,2.597492110965104,60.12308186590147,-187.8320463881346
16,-1.5223777123327258,-2.437904339732244,0.7664388561660683,-1.2172021698662199,2.292316568498598,-0.4542633136999553,4.5811331369973916,-0.6068510849332083,1.0716143986325743,-4.4215453657645325,-2.437904339732244,-3.2008431958985084,-2.8956676534320023,-3.5060187383650145,0.4612633136995624,-3.5060187383650145,1.0716143986325743,0.30867554246630946,2.9026676534316094,68.66799705496364,-214.8400818964204
20,-1.9801410260324848,-2.743079882198749,0.9190266273993212,-1.5223777123327258,1.834553254798839,-0.6068510849332083,3.5130187383646216,-0.6068510849332083,0.6138510849328154,-3.9637820520647726,-2.285316568498991,-2.743079882198749,-2.743079882198749,-3.3534309671317617,-0.4542633136999553,-2.285316568498991,0.7664388561660683,0.15608777123305648,2.9026676534316094,56.46097535630339,-175.1672613757746
23,-1.0646143986329673,-1.674965483565979,1.0716143986325743,-1.827553254799232,1.0716143986325743,-0.9120266273997142,3.3604309671313684,-0.7594388561664611,0.15608777123305648,-4.574133136997785,-2.5904921109654966,-2.437904339732244,-2.8956676534320023,-4.574133136997785,-0.9120266273997142,-2.5904921109654966,0.6138510849328154,0.15608777123305648,2.597492110965104,55.39286095767062,-168.91116275521122
27,-0.7594388561664611,-0.3016755424667024,0.9190266273993212,-1.5223777123327258,1.3767899410990798,-0.9120266273997142,3.6656065095978745,-0.4542633136999553,-0.4542633136999553,-5.33707199316405,-3.2008431958985084,-2.285316568498991,-3.81119428083152,-5.794835306863807,-0.9120266273997142,-3.3534309671317617,0.9190266273993212,0.0034999999998035487,1.987141026032092,60.428257408367976,-189.20533632923386
31,-1.369789941099473,-1.2172021698662199,0.4612633136995624,-0.7594388561664611,1.834553254798839,-0.1490877712334494,3.3604309671313684,-0.4542633136999553,-0.1490877712334494,-5.642247535630556,-3.3534309671317617,-2.285316568498991,-4.574133136997785,-4.26895759453128,-1.369789941099473,-3.9637820520647726,1.2242021698658272,0.0034999999998035487,2.292316568498598,55.39286095767062,-184.9328787347028
35,-1.9801410260324848,-3.048255424665256,0.4612633136995624,-1.0646143986329673,1.529377712332333,-0.4542633136999553,2.597492110965104,-0.9120266273997142,-0.3016755424667024,-5.642247535630556,-3.5060187383650145,-2.8956676534320023,-4.726720908231037,-1.827553254799232,-2.285316568498991,-3.9637820520647726,0.7664388561660683,0.15608777123305648,3.0552554246648627,50.35746450697329,-175.01467360454137
39,-1.827553254799232,-3.3534309671317617,1.2242021698658272,-1.827553254799232,1.529377712332333,-1.369789941099473,2.1397287972653447,-1.369789941099473,-1.0646143986329673,-5.642247535630556,-3.81119428083152,-3.81119428083152,-4.26895759453128,-2.132728797265738,-2.5904921109654966,-3.3534309671317617,0.15608777123305648,0.30867554246630946,3.2078431958981155,52.493693304238825,-180.05007005523868
43,-1.369789941099473,-1.5223777123327258,0.7664388561660683,-1.827553254799232,1.6819654835655862,-1.674965483565979,2.4449043397318513,-0.7594388561664611,-1.369789941099473,-5.4896597643973015,-2.8956676534320023,-3.3534309671317617,-3.3534309671317617,-3.048255424665256,-1.674965483565979,-2.285316568498991,0.4612633136995624,0.30867554246630946,2.7500798821983556,52.03592999053907,-183.254413251137
47,-0.7594388561664611,-0.1490877712334494,0.30867554246630946,-0.7594388561664611,2.1397287972653447,-1.0646143986329673,3.2078431958981155,0.30867554246630946,-0.7594388561664611,-5.4896597643973015,-1.9801410260324848,-2.285316568498991,-2.5904921109654966,-2.437904339732244,-0.6068510849332083,-2.132728797265738,1.3767899410990798,0.15608777123305648,2.7500798821983556,46.54277022614195,-179.13454342783913
51,-1.2172021698662199,-0.7594388561664611,1.0716143986325743,-0.3016755424667024,2.292316568498598,-0.3016755424667024,3.8181942808311273,0.0034999999998035487,0.15608777123305648,-5.33707199316405,-1.9801410260324848,-1.9801410260324848,-2.437904339732244,-2.285316568498991,-0.1490877712334494,-2.5904921109654966,1.987141026032092,0.15608777123305648,3.6656065095978745,42.42290040284412,-178.5241923429061
55,-2.132728797265738,-2.132728797265738,2.1397287972653447,-0.6068510849332083,2.597492110965104,-0.4542633136999553,3.3604309671313684,-0.6068510849332083,0.0034999999998035487,-5.031896450697544,-2.437904339732244,-2.437904339732244,-2.743079882198749,-4.4215453657645325,-0.9120266273997142,-2.5904921109654966,1.6819654835655862,0.15608777123305648,4.7337209082306435,41.049610461744855,-180.05007005523868
59,-2.743079882198749,-2.285316568498991,1.834553254798839,-1.2172021698662199,2.9026676534316094,-1.0646143986329673,2.9026676534316094,-0.4542633136999553,-0.9120266273997142,-5.031896450697544,-2.5904921109654966,-2.8956676534320023,-3.048255424665256,-5.794835306863807,-1.9801410260324848,-1.827553254799232,1.2242021698658272,0.15608777123305648,4.886308679463898,39.98149606311207,-178.98195565660592
62,-2.437904339732244,-1.0646143986329673,1.0716143986325743,-1.5223777123327258,2.7500798821983556,-1.5223777123327258,2.7500798821983556,-0.4542633136999553,-1.674965483565979,-5.642247535630556,-2.5904921109654966,-2.8956676534320023,-3.048255424665256,-3.2008431958985084,-1.827553254799232,-1.369789941099473,1.0716143986325743,0.15608777123305648,4.275957594530887,38.150442808313045,-178.21901680043965
66,-1.674965483565979,0.0034999999998035487,1.0716143986325743,-1.2172021698662199,2.597492110965104,-1.369789941099473,2.7500798821983556,-0.4542633136999553,-1.9801410260324848,-6.252598620563568,-2.132728797265738,-2.5904921109654966,-2.8956676534320023,-0.3016755424667024,-1.2172021698662199,-1.9801410260324848,1.2242021698658272,0.0034999999998035487,3.5130187383646216,34.64092406994823,-178.82936788537262
70,-1.674965483565979,-0.6068510849332083,1.529377712332333,-0.6068510849332083,2.7500798821983556,-0.6068510849332083,2.9026676534316094,-0.1490877712334494,-1.674965483565979,-6.40518639179682,-1.674965483565979,-2.437904339732244,-2.5904921109654966,-0.7594388561664611,-1.2172021698662199,-2.743079882198749,1.3767899410990798,0.0034999999998035487,3.0552554246648627,29.75811539048412,-178.82936788537262
74,-2.8956676534320023,-2.437904339732244,1.529377712332333,-0.7594388561664611,2.597492110965104,-0.3016755424667024,3.0552554246648627,-0.6068510849332083,-1.2172021698662199,-6.100010849330316,-1.674965483565979,-2.8956676534320023,-2.8956676534320023,-1.827553254799232,-1.9801410260324848,-2.743079882198749,1.0716143986325743,0.15608777123305648,3.5130187383646216,26.401184423352564,-178.3716045716729
78,-4.4215453657645325,-3.048255424665256,1.834553254798839,-1.5223777123327258,2.4449043397318513,-0.7594388561664611,2.9026676534316094,-0.6068510849332083,-1.5223777123327258,-5.794835306863807,-1.827553254799232,-3.048255424665256,-4.116369823298026,-1.0646143986329673,-2.437904339732244,-1.674965483565979,0.9190266273993212,0.0034999999998035487,4.123369823297634,25.94342110965281,-178.5241923429061
82,-2.437904339732244,-1.369789941099473,1.834553254798839,-1.9801410260324848,2.9026676534316094,-1.2172021698662199,2.597492110965104,0.0034999999998035487,-2.285316568498991,-5.642247535630556,-1.674965483565979,-2.5904921109654966,-5.33707199316405,-0.4542633136999553,-2.437904339732244,-0.7594388561664611,0.9190266273993212,-0.3016755424667024,3.97078205206438,25.180482253486538,-178.5241923429061
86,1.987141026032092,0.6138510849328154,1.2242021698658272,-1.5223777123327258,3.0552554246648627,-1.369789941099473,2.7500798821983556,0.4612633136995624,-2.743079882198749,-6.252598620563568,-1.5223777123327258,-2.285316568498991,-4.726720908231037,-0.4542633136999553,-2.132728797265738,-0.7594388561664611,1.2242021698658272,-0.1490877712334494,3.0552554246648627,21.213200201421962,-177.9138412579731
90,2.597492110965104,1.0716143986325743,1.3767899410990798,-0.6068510849332083,3.2078431958981155,-0.3016755424667024,3.5130187383646216,0.7664388561660683,-1.827553254799232,-6.100010849330316,-1.0646143986329673,-1.674965483565979,-1.827553254799232,0.4612633136995624,-1.5223777123327258,-0.6068510849332083,1.529377712332333,0.15608777123305648,3.5130187383646216,16.635567064424375,-177.60866571550662
94,-0.3016755424667024,-0.1490877712334494,2.292316568498598,0.0034999999998035487,3.6656065095978745,0.9190266273993212,3.97078205206438,0.7664388561660683,-0.4542633136999553,-4.4215453657645325,-0.3016755424667024,-0.9120266273997142,0.15608777123305648,0.9190266273993212,-1.369789941099473,0.15608777123305648,1.834553254798839,0.0034999999998035487,4.886308679463898,13.888987182225824,-177.60866571550662
98,-1.369789941099473,-1.0646143986329673,2.9026676534316094,-0.7594388561664611,3.2078431958981155,0.15608777123305648,3.3604309671313684,0.4612633136995624,-0.6068510849332083,-3.9637820520647726,-0.7594388561664611,-1.0646143986329673,-0.7594388561664611,0.0034999999998035487,-1.5223777123327258,0.9190266273993212,1.6819654835655862,-0.1490877712334494,5.191484221930403,12.21052169866004,-177.30349017304007
102,0.30867554246630946,-0.4542633136999553,2.597492110965104,-1.2172021698662199,2.9026676534316094,-0.9120266273997142,3.0552554246648627,0.6138510849328154,-1.5223777123327258,-4.26895759453128,-1.0646143986329673,-1.5223777123327258,-1.369789941099473,-0.4542633136999553,-1.369789941099473,1.3767899410990798,1.529377712332333,0.15608777123305648,3.97078205206438,11.142407300027271,-177.45607794427337
105,1.529377712332333,1.0716143986325743,2.597492110965104,-0.3016755424667024,3.2078431958981155,-0.3016755424667024,3.97078205206438,1.3767899410990798,-1.369789941099473,-4.116369823298026,-0.6068510849332083,-0.7594388561664611,0.0034999999998035487,0.30867554246630946,-0.7594388561664611,1.987141026032092,2.1397287972653447,0.30867554246630946,2.9026676534316094,9.921705130161246,-177.76125348673992
109,1.0716143986325743,1.834553254798839,2.4449043397318513,0.4612633136995624,3.8181942808311273,0.7664388561660683,4.7337209082306435,1.6819654835655862,-0.4542633136999553,-3.6586065095982674,-0.3016755424667024,0.30867554246630946,0.4612633136995624,0.6138510849328154,-0.6068510849332083,2.292316568498598,2.597492110965104,0.15608777123305648,2.7500798821983556,6.717361934262934,-177.45607794427337
113,-0.7594388561664611,0.30867554246630946,2.597492110965104,0.0034999999998035487,3.97078205206438,0.7664388561660683,4.5811331369973916,1.0716143986325743,0.30867554246630946,-3.6586065095982674,-0.6068510849332083,0.15608777123305648,-0.4542633136999553,-0.1490877712334494,-1.2172021698662199,2.292316568498598,2.292316568498598,0.0034999999998035487,3.5130187383646216,3.0552554246648627,-176.99831463057362
117,-1.674965483565979,-0.7594388561664611,3.0552554246648627,-0.7594388561664611,4.275957594530887,0.6138510849328154,4.275957594530887,1.0716143986325743,0.30867554246630946,-3.3534309671317617,-0.9120266273997142,-0.9120266273997142,-0.6068510849332083,-1.674965483565979,-1.5223777123327258,2.9026676534316094,1.987141026032092,0.0034999999998035487,4.428545365764139,0.7664388561660683,-176.84572685934037
121,-0.3016755424667024,0.15608777123305648,3.6656065095978745,-0.9120266273997142,4.7337209082306435,0.7664388561660683,4.428545365764139,1.987141026032092,0.15608777123305648,-2.8956676534320023,-0.4542633136999553,-0.7594388561664611,0.0034999999998035487,-1.674965483565979,-0.9120266273997142,4.123369823297634,2.4449043397318513,0.4612633136995624,4.428545365764139,-1.9801410260324848,-176.84572685934037
125,1.0716143986325743,2.292316568498598,3.6656065095978745,-0.4542633136999553,4.886308679463898,0.4612633136995624,4.5811331369973916,2.292316568498598,-0.3016755424667024,-2.8956676534320023,0.30867554246630946,-0.1490877712334494,0.0034999999998035487,0.30867554246630946,-0.4542633136999553,4.428545365764139,3.2078431958981155,0.4612633136995624,2.9026676534316094,-5.947423078097062,-176.54055131687386
129,0.7664388561660683,2.1397287972653447,3.5130187383646216,0.15608777123305648,4.5811331369973916,0.0034999999998035487,4.5811331369973916,1.987141026032092,-0.6068510849332083,-3.2008431958985084,0.6138510849328154,-0.3016755424667024,-0.7594388561664611,1.6819654835655862,-0.9120266273997142,3.3604309671313684,3.2078431958981155,0.15608777123305648,1.6819654835655862,-8.999178502762119,-176.38796354564064
133,-0.4542633136999553,0.30867554246630946,3.3604309671313684,0.15608777123305648,4.886308679463898,0.30867554246630946,4.123369823297634,1.3767899410990798,-0.1490877712334494,-3.3534309671317617,0.15608777123305648,-0.9120266273997142,-1.369789941099473,1.529377712332333,-1.2172021698662199,2.7500798821983556,2.7500798821983556,0.0034999999998035487,2.597492110965104,-10.067292901394893,-176.23537577440737
137,-1.5223777123327258,-1.2172021698662199,3.2078431958981155,-0.6068510849332083,4.886308679463898,0.30867554246630946,3.5130187383646216,0.7664388561660683,-0.3016755424667024,-3.2008431958985084,-1.0646143986329673,-1.369789941099473,-1.0646143986329673,0.9190266273993212,-1.827553254799232,3.2078431958981155,2.1397287972653447,0.0034999999998035487,3.5130187383646216,-10.067292901394893,-176.0827880031741
141,-1.5223777123327258,-0.7594388561664611,2.4449043397318513,-1.5223777123327258,3.97078205206438,-0.4542633136999553,2.4449043397318513,0.6138510849328154,-1.2172021698662199,-3.2008431958985084,-1.674965483565979,-1.369789941099473,-0.6068510849332083,0.4612633136995624,-2.285316568498991,3.6656065095978745,1.3767899410990798,0.15608777123305648,2.597492110965104,-11.135407300027662,-175.7776124607076
145,-0.6068510849332083,0.7664388561660683,1.2242021698658272,-1.827553254799232,3.0552554246648627,-1.0646143986329673,2.292316568498598,0.6138510849328154,-2.437904339732244,-3.9637820520647726,-0.9120266273997142,-1.5223777123327258,-0.7594388561664611,-1.2172021698662199,-2.437904339732244,3.3604309671313684,1.3767899410990798,0.30867554246630946,1.2242021698658272,-14.034574953459467,-175.93020023194083
148,-0.6068510849332083,1.6819654835655862,0.7664388561660683,-1.2172021698662199,3.0552554246648627,-0.6068510849332083,3.2078431958981155,0.9190266273993212,-2.5904921109654966,-4.26895759453128,-0.3016755424667024,-0.9120266273997142,-0.9120266273997142,-3.6586065095982674,-1.5223777123327258,2.7500798821983556,1.834553254798839,0.15608777123305648,1.987141026032092,-18.612208090457045,-176.0827880031741
152,-1.674965483565979,0.4612633136995624,1.6819654835655862,-0.7594388561664611,3.2078431958981155,0.15608777123305648,3.6656065095978745,1.2242021698658272,-1.674965483565979,-3.2008431958985084,-0.4542633136999553,-0.1490877712334494,-0.3016755424667024,-2.743079882198749,-1.2172021698662199,2.7500798821983556,1.987141026032092,-0.3016755424667024,3.3604309671313684,-22.57949014252164,-175.7776124607076
156,-1.827553254799232,-1.0646143986329673,1.987141026032092,-1.0646143986329673,2.597492110965104,0.0034999999998035487,3.0552554246648627,0.9190266273993212,-1.674965483565979,-2.743079882198749,-1.369789941099473,-0.6068510849332083,-0.3016755424667024,1.0716143986325743,-2.132728797265738,3.2078431958981155,1.2242021698658272,-0.3016755424667024,3.5130187383646216,-23.342428998687897,-175.31984914700783
160,-0.7594388561664611,-1.369789941099473,1.3767899410990798,-1.674965483565979,2.1397287972653447,-1.0646143986329673,2.1397287972653447,0.0034999999998035487,-2.8956676534320023,-3.048255424665256,-2.132728797265738,-1.5223777123327258,-1.369789941099473,2.4449043397318513,-2.8956676534320023,3.6656065095978745,0.6138510849328154,0.15608777123305648,1.987141026032092,-23.800192312387647,-175.62502468947434
164,0.15608777123305648,-0.1490877712334494,0.9190266273993212,-2.132728797265738,1.987141026032092,-1.674965483565979,1.834553254798839,-0.4542633136999553,-3.81119428083152,-3.6586065095982674,-1.827553254799232,-1.5223777123327258,-2.132728797265738,0.15608777123305648,-3.2008431958985084,3.5130187383646216,0.6138510849328154,0.4612633136995624,0.15608777123305648,-27.61488659321898,-176.0827880031741
168,0.0034999999998035487,0.9190266273993212,1.0716143986325743,-1.5223777123327258,2.597492110965104,-1.2172021698662199,2.597492110965104,0.15608777123305648,-3.048255424665256,-3.5060187383650145,-0.9120266273997142,-0.9120266273997142,-1.369789941099473,-0.6068510849332083,-2.5904921109654966,2.7500798821983556,1.0716143986325743,0.4612633136995624,-0.3016755424667024,-31.429580874050302,-175.93020023194083
172,-1.369789941099473,-0.1490877712334494,1.2242021698658272,-0.9120266273997142,2.9026676534316094,-0.4542633136999553,3.2078431958981155,0.4612633136995624,-1.674965483565979,-2.5904921109654966,-0.6068510849332083,-0.7594388561664611,-0.6068510849332083,0.7664388561660683,-2.285316568498991,2.4449043397318513,1.3767899410990798,0.0034999999998035487,1.2242021698658272,-30.361466475417533,-175.31984914700783
176,-1.5223777123327258,-2.132728797265738,0.4612633136995624,-1.827553254799232,2.4449043397318513,-1.0646143986329673,2.292316568498598,-0.1490877712334494,-1.674965483565979,-2.5904921109654966,-1.2172021698662199,-1.827553254799232,-1.2172021698662199,0.6138510849328154,-3.048255424665256,2.597492110965104,0.6138510849328154,0.0034999999998035487,1.987141026032092,-27.46229882198573,-174.8620858333081
180,0.30867554246630946,-2.743079882198749,0.30867554246630946,-3.3534309671317617,2.1397287972653447,-2.132728797265738,1.0716143986325743,-0.4542633136999553,-2.8956676534320023,-3.5060187383650145,-1.674965483565979,-3.2008431958985084,-1.9801410260324848,-0.9120266273997142,-3.81119428083152,2.597492110965104,-0.1490877712334494,0.15608777123305648,1.3767899410990798,-26.699359965819465,-174.70949806207486
184,1.6819654835655862,-1.0646143986329673,1.0716143986325743,-3.048255424665256,2.597492110965104,-1.9801410260324848,1.529377712332333,0.0034999999998035487,-3.81119428083152,-3.81119428083152,-1.0646143986329673,-2.5904921109654966,-1.674965483565979,-0.7594388561664611,-3.5060187383650145,2.4449043397318513,0.30867554246630946,0.30867554246630946,0.9190266273993212,-26.39418442335296,-174.40432251960831
188,1.0716143986325743,0.4612633136995624,1.2242021698658272,-1.827553254799232,3.0552554246648627,-1.2172021698662199,2.597492110965104,0.30867554246630946,-3.3534309671317617,-3.5060187383650145,-0.1490877712334494,-1.369789941099473,-1.369789941099473,-0.3016755424667024,-2.743079882198749,2.1397287972653447,1.3767899410990798,0.15608777123305648,0.7664388561660683,-23.800192312387647,-174.09914697714183
191,-0.3016755424667024,-0.1490877712334494,0.6138510849328154,-1.5223777123327258,2.9026676534316094,-0.6068510849332083,2.597492110965104,-0.1490877712334494,-2.437904339732244,-3.048255424665256,-0.6068510849332083,-1.0646143986329673,-1.5223777123327258,-1.0646143986329673,-2.8956676534320023,1.6819654835655862,1.2242021698658272,0.15608777123305648,0.9190266273993212,-20.748436887722594,-173.94655920590856
195,-1.827553254799232,-2.132728797265738,0.30867554246630946,-1.9801410260324848,2.7500798821983556,-1.0646143986329673,1.834553254798839,-0.9120266273997142,-2.437904339732244,-3.048255424665256,-1.369789941099473,-1.9801410260324848,-2.285316568498991,-2.743079882198749,-3.81119428083152,1.6819654835655862,0.30867554246630946,0.0034999999998035487,1.3767899410990798,-18.917383632923567,-173.94655920590856
199,-2.285316568498991,-2.132728797265738,0.4612633136995624,-2.437904339732244,3.2078431958981155,-1.9801410260324848,1.3767899410990798,-0.7594388561664611,-3.048255424665256,-3.3534309671317617,-1.2172021698662199,-2.437904339732244,-2.743079882198749,-3.9637820520647726,-4.726720908231037,2.4449043397318513,-0.3016755424667024,0.0034999999998035487,2.1397287972653447,-16.781154835658022,-174.09914697714183
203,-0.9120266273997142,-0.4542633136999553,0.30867554246630946,-2.437904339732244,3.3604309671313684,-2.5904921109654966,1.6819654835655862,-0.4542633136999553,-3.048255424665256,-3.3534309671317617,-0.9120266273997142,-1.9801410260324848,-2.743079882198749,-2.8956676534320023,-5.031896450697544,2.9026676534316094,0.0034999999998035487,0.15608777123305648,1.834553254798839,-14.492338267159223,-174.2517347483751
207,1.0716143986325743,0.9190266273993212,0.0034999999998035487,-1.674965483565979,2.7500798821983556,-2.285316568498991,1.834553254798839,0.0034999999998035487,-2.5904921109654966,-3.048255424665256,-1.0646143986329673,-0.6068510849332083,-2.437904339732244,-0.6068510849332083,-4.116369823298026,2.7500798821983556,0.7664388561660683,0.0034999999998035487,1.0716143986325743,-14.18716272469272,-173.94655920590856
211,1.6819654835655862,0.15608777123305648,0.30867554246630946,-0.7594388561664611,2.7500798821983556,-1.369789941099473,2.4449043397318513,0.15608777123305648,-1.827553254799232,-2.437904339732244,-1.0646143986329673,-0.4542633136999553,-2.743079882198749,0.30867554246630946,-3.6586065095982674,2.292316568498598,1.0716143986325743,-0.4542633136999553,1.2242021698658272,-15.865628208258505,-173.031032578509
215,0.15608777123305648,-1.5223777123327258,0.30867554246630946,-0.9120266273997142,3.3604309671313684,-1.369789941099473,2.292316568498598,-0.1490877712334494,-2.132728797265738,-2.285316568498991,-1.0646143986329673,-1.369789941099473,-3.81119428083152,-0.7594388561664611,-4.574133136997785,2.292316568498598,0.6138510849328154,-0.1490877712334494,2.1397287972653447,-16.47597929319151,-172.57326926480926
219,-0.7594388561664611,-2.437904339732244,-0.4542633136999553,-1.9801410260324848,3.0552554246648627,-2.5904921109654966,1.0716143986325743,-1.0646143986329673,-3.6586065095982674,-2.8956676534320023,-1.2172021698662199,-2.285316568498991,-4.726720908231037,-1.369789941099473,-5.33707199316405,2.292316568498598,0.0034999999998035487,0.4612633136995624,1.529377712332333,-16.018215979491757,-172.72585703604253
223,0.30867554246630946,-1.2172021698662199,-0.7594388561664611,-2.132728797265738,2.4449043397318513,-3.2008431958985084,0.6138510849328154,-1.0646143986329673,-4.4215453657645325,-3.5060187383650145,-0.9120266273997142,-1.827553254799232,-3.3534309671317617,-1.0646143986329673,-4.574133136997785,2.292316568498598,0.0034999999998035487,0.30867554246630946,-0.1490877712334494,-17.849269234290787,-172.57326926480926
227,1.529377712332333,1.2242021698658272,0.15608777123305648,-1.0646143986329673,2.597492110965104,-2.5904921109654966,1.6819654835655862,-0.1490877712334494,-3.2008431958985084,-3.048255424665256,0.0034999999998035487,-0.7594388561664611,-1.2172021698662199,-0.6068510849332083,-2.8956676534320023,2.597492110965104,0.9190266273993212,0.0034999999998035487,-0.3016755424667024,-21.35878797265561,-172.42068149357604
230,1.6819654835655862,1.6819654835655862,1.0716143986325743,0.0034999999998035487,3.0552554246648627,-1.369789941099473,2.292316568498598,0.30867554246630946,-1.9801410260324848,-2.285316568498991,0.15608777123305648,0.15608777123305648,-0.9120266273997142,0.0034999999998035487,-2.743079882198749,2.4449043397318513,1.529377712332333,0.0034999999998035487,0.7664388561660683,-24.715718939787177,-172.72585703604253
234,1.3767899410990798,0.0034999999998035487,0.30867554246630946,0.15608777123305648,3.0552554246648627,-1.2172021698662199,1.834553254798839,-0.1490877712334494,-1.9801410260324848,-1.9801410260324848,-0.6068510849332083,-0.3016755424667024,-1.674965483565979,0.30867554246630946,-3.81119428083152,2.4449043397318513,1.529377712332333,0.0034999999998035487,1.2242021698658272,-27.920062135685487,-172.42068149357604
238,1.2242021698658272,-0.7594388561664611,-0.3016755424667024,-0.6068510849332083,2.7500798821983556,-1.674965483565979,1.2242021698658272,-0.6068510849332083,-2.437904339732244,-1.827553254799232,-0.4542633136999553,-0.9120266273997142,-1.5223777123327258,-0.3016755424667024,-4.26895759453128,2.9026676534316094,1.2242021698658272,0.15608777123305648,0.7664388561660683,-29.14076430555151,-171.810330408643
242,1.3767899410990798,0.4612633136995624,-0.1490877712334494,-1.369789941099473,3.0552554246648627,-2.285316568498991,1.0716143986325743,-0.1490877712334494,-3.2008431958985084,-1.9801410260324848,0.0034999999998035487,-1.0646143986329673,-1.369789941099473,-1.369789941099473,-4.116369823298026,2.9026676534316094,0.6138510849328154,0.15608777123305648,0.15608777123305648,-27.309711050752476,-171.96291817987625
246,1.529377712332333,1.987141026032092,0.30867554246630946,-1.0646143986329673,3.3604309671313684,-2.132728797265738,1.2242021698658272,0.15608777123305648,-3.3534309671317617,-2.285316568498991,0.30867554246630946,-0.6068510849332083,-1.5223777123327258,-2.743079882198749,-3.5060187383650145,2.7500798821983556,0.9190266273993212,0.0034999999998035487,0.0034999999998035487,-26.08900888088645,-171.96291817987625
250,1.2242021698658272,1.987141026032092,1.0716143986325743,0.15608777123305648,3.97078205206438,-1.2172021698662199,1.6819654835655862,0.4612633136995624,-2.132728797265738,-1.827553254799232,0.6138510849328154,0.30867554246630946,-0.7594388561664611,-3.9637820520647726,-2.8956676534320023,2.9026676534316094,1.987141026032092,0.0034999999998035487,0.6138510849328154,-27.004535508285965,-171.35256709494325
254,-0.9120266273997142,0.4612633136995624,1.3767899410990798,0.4612633136995624,3.8181942808311273,-0.6068510849332083,2.4449043397318513,0.30867554246630946,-0.6068510849332083,-1.0646143986329673,0.6138510849328154,0.30867554246630946,-0.3016755424667024,-2.743079882198749,-2.743079882198749,3.2078431958981155,2.292316568498598,0.30867554246630946,1.2242021698658272,-27.15712327951922,-170.74221601001025
258,-1.827553254799232,-0.7594388561664611,0.6138510849328154,-0.9120266273997142,3.2078431958981155,-1.827553254799232,1.987141026032092,-0.1490877712334494,-1.0646143986329673,-1.369789941099473,0.30867554246630946,-0.9120266273997142,-0.9120266273997142,0.30867554246630946,-3.3534309671317617,3.3604309671313684,1.2242021698658272,0.4612633136995624,1.3767899410990798,-24.715718939787177,-170.74221601001025
262,0.9190266273993212,0.0034999999998035487,-0.1490877712334494,-1.9801410260324848,2.292316568498598,-3.2008431958985084,1.0716143986325743,-0.3016755424667024,-2.285316568498991,-2.285316568498991,0.15608777123305648,-1.5223777123327258,-1.827553254799232,1.2242021698658272,-3.6586065095982674,3.2078431958981155,0.6138510849328154,0.30867554246630946,0.4612633136995624,-20.138085802789586,-170.74221601001025
266,3.2078431958981155,1.834553254798839,0.30867554246630946,-1.5223777123327258,1.987141026032092,-2.743079882198749,1.0716143986325743,0.15608777123305648,-2.437904339732244,-2.5904921109654966,0.6138510849328154,-0.9120266273997142,-1.369789941099473,-0.7594388561664611,-3.2008431958985084,2.7500798821983556,0.9190266273993212,0.30867554246630946,-0.6068510849332083,-15.865628208258505,-170.58962823877698
270,2.597492110965104,2.1397287972653447,0.9190266273993212,-0.1490877712334494,2.4449043397318513,-1.2172021698662199,2.292316568498598,0.4612633136995624,-1.5223777123327258,-2.132728797265738,0.9190266273993212,0.15608777123305648,-0.4542633136999553,-2.743079882198749,-2.5904921109654966,2.292316568498598,1.3767899410990798,0.0034999999998035487,0.15608777123305648,-12.966460554826696,-170.43704046754377
273,1.2242021698658272,0.4612633136995624,0.7664388561660683,-0.1490877712334494,2.597492110965104,-0.6068510849332083,2.597492110965104,0.15608777123305648,-0.9120266273997142,-1.2172021698662199,0.4612633136995624,0.15608777123305648,-0.4542633136999553,-2.437904339732244,-2.743079882198749,2.1397287972653447,1.3767899410990798,0.0034999999998035487,1.3767899410990798,-10.372468443861397,-169.82668938261074
277,0.6138510849328154,-0.9120266273997142,0.4612633136995624,-1.674965483565979,2.292316568498598,-1.827553254799232,1.3767899410990798,-0.4542633136999553,-1.9801410260324848,-1.0646143986329673,-0.4542633136999553,-1.0646143986329673,-1.674965483565979,-0.1490877712334494,-3.9637820520647726,1.987141026032092,0.4612633136995624,-0.3016755424667024,1.2242021698658272,-6.557774163030072,-169.52151384014422
281,0.7664388561660683,-0.4542633136999553,0.4612633136995624,-2.5904921109654966,2.7500798821983556,-3.048255424665256,0.4612633136995624,-0.4542633136999553,-3.048255424665256,-1.827553254799232,-0.7594388561664611,-1.9801410260324848,-2.5904921109654966,1.3767899410990798,-4.4215453657645325,2.292316568498598,0.30867554246630946,-0.4542633136999553,0.0034999999998035487,-1.9801410260324848,-169.6741016113775
285,1.834553254798839,0.7664388561660683,0.6138510849328154,-2.132728797265738,3.8181942808311273,-2.5904921109654966,0.9190266273993212,0.30867554246630946,-2.8956676534320023,-2.5904921109654966,-0.3016755424667024,-1.369789941099473,-2.743079882198749,0.4612633136995624,-3.3534309671317617,2.7500798821983556,0.30867554246630946,-0.1490877712334494,-1.2172021698662199,1.529377712332333,-169.82668938261074
289,1.987141026032092,0.9190266273993212,0.7664388561660683,-1.0646143986329673,3.97078205206438,-1.5223777123327258,1.987141026032092,0.9190266273993212,-1.5223777123327258,-2.132728797265738,0.30867554246630946,-0.6068510849332083,-2.285316568498991,0.0034999999998035487,-2.132728797265738,2.597492110965104,0.7664388561660683,0.0034999999998035487,-0.9120266273997142,3.6656065095978745,-169.6741016113775
293,0.6138510849328154,-0.3016755424667024,1.2242021698658272,-0.3016755424667024,4.123369823297634,-0.7594388561664611,2.292316568498598,1.0716143986325743,-0.4542633136999553,-0.9120266273997142,0.4612633136995624,-0.3016755424667024,-1.2172021698662199,1.529377712332333,-1.827553254799232,2.292316568498598,1.0716143986325743,0.15608777123305648,0.9190266273993212,6.412186391796428,-169.21633829767774
297,0.0034999999998035487,-1.2172021698662199,1.6819654835655862,-0.9120266273997142,4.7337209082306435,-0.9120266273997142,2.1397287972653447,0.9190266273993212,-0.1490877712334494,-0.4542633136999553,0.4612633136995624,-0.6068510849332083,-0.3016755424667024,2.9026676534316094,-2.132728797265738,2.9026676534316094,1.2242021698658272,0.0034999999998035487,1.834553254798839,10.68464398632751,-168.45339944151146
301,1.3767899410990798,-0.4542633136999553,1.529377712332333,-1.827553254799232,5.038896450697152,-1.5223777123327258,1.987141026032092,0.9190266273993212,-0.9120266273997142,-0.6068510849332083,0.30867554246630946,-0.7594388561664611,-0.3016755424667024,2.1397287972653447,-2.285316568498991,3.3604309671313684,0.9190266273993212,0.0034999999998035487,0.6138510849328154,13.583811639759315,-167.99563612781168
305,2.597492110965104,1.3767899410990798,1.3767899410990798,-1.5223777123327258,5.4966597643969095,-1.2172021698662199,2.597492110965104,1.6819654835655862,-1.369789941099473,-0.4542633136999553,0.9190266273993212,-0.1490877712334494,-0.1490877712334494,1.3767899410990798,-1.674965483565979,3.3604309671313684,1.0716143986325743,0.30867554246630946,-0.3016755424667024,13.431223868526065,-168.14822389904498
309,2.1397287972653447,2.4449043397318513,1.987141026032092,-0.1490877712334494,6.259598620563175,0.0034999999998035487,3.6656065095978745,2.7500798821983556,0.0034999999998035487,0.15608777123305648,1.3767899410990798,0.7664388561660683,0.7664388561660683,1.529377712332333,-0.9120266273997142,3.5130187383646216,1.6819654835655862,0.4612633136995624,1.0716143986325743,13.278636097292809,-168.3008116702782
312,1.2242021698658272,1.834553254798839,2.4449043397318513,0.4612633136995624,6.564774163029679,1.0716143986325743,4.275957594530887,3.0552554246648627,1.3767899410990798,0.15608777123305648,1.3767899410990798,0.7664388561660683,1.529377712332333,1.987141026032092,-0.7594388561664611,3.5130187383646216,1.834553254798839,0.15608777123305648,3.3604309671313684,17.093330378124133,-167.84304835657844
316,0.6138510849328154,0.4612633136995624,1.987141026032092,-0.4542633136999553,6.259598620563175,1.0716143986325743,3.97078205206438,2.597492110965104,1.3767899410990798,0.0034999999998035487,0.7664388561660683,0.0034999999998035487,0.7664388561660683,2.1397287972653447,-1.0646143986329673,3.3604309671313684,1.6819654835655862,0.0034999999998035487,4.123369823297634,20.4502613452557,-167.23269727164543
320,0.30867554246630946,0.4612633136995624,1.3767899410990798,-1.2172021698662199,5.6492475356301615,0.0034999999998035487,3.3604309671313684,2.1397287972653447,0.30867554246630946,0.0034999999998035487,0.4612633136995624,-0.4542633136999553,-0.6068510849332083,1.834553254798839,-1.5223777123327258,3.2078431958981155,1.3767899410990798,0.15608777123305648,3.2078431958981155,13.73639941099257,-167.0801095004122
324,1.2242021698658272,1.3767899410990798,0.7664388561660683,-1.369789941099473,5.191484221930403,-0.7594388561664611,2.597492110965104,1.834553254798839,-0.6068510849332083,-0.9120266273997142,0.7664388561660683,-0.4542633136999553,-1.5223777123327258,0.9190266273993212,-2.132728797265738,2.7500798821983556,0.9190266273993212,0.4612633136995624,1.987141026032092,-4.4215453657645325,-166.9275217291789
328,1.834553254798839,1.6819654835655862,0.4612633136995624,-0.9120266273997142,5.191484221930403,-0.4542633136999553,2.597492110965104,1.987141026032092,-0.7594388561664611,-1.5223777123327258,0.9190266273993212,-0.3016755424667024,-1.369789941099473,0.0034999999998035487,-1.827553254799232,1.834553254798839,0.7664388561660683,0.30867554246630946,1.834553254798839,-23.800192312387647,-166.9275217291789
332,0.0034999999998035487,0.9190266273993212,0.9190266273993212,-0.1490877712334494,5.801835306863415,0.7664388561660683,3.2078431958981155,2.4449043397318513,0.6138510849328154,-0.6068510849332083,1.0716143986325743,-0.1490877712334494,0.6138510849328154,-0.4542633136999553,-0.7594388561664611,1.2242021698658272,1.3767899410990798,-0.1490877712334494,3.0552554246648627,-32.19251973021657,-166.62234618671243
336,-2.5904921109654966,-0.3016755424667024,1.3767899410990798,-0.6068510849332083,5.6492475356301615,1.0716143986325743,3.0552554246648627,2.1397287972653447,1.0716143986325743,0.30867554246630946,0.9190266273993212,-0.4542633136999553,1.834553254798839,-2.5904921109654966,-0.7594388561664611,1.2242021698658272,1.529377712332333,-0.1490877712334494,3.8181942808311273,-24.715718939787177,-166.1645828730127
340,-1.827553254799232,-0.7594388561664611,0.9190266273993212,-1.9801410260324848,4.7337209082306435,0.15608777123305648,2.1397287972653447,1.3767899410990798,-0.6068510849332083,-0.6068510849332083,0.4612633136995624,-1.0646143986329673,0.6138510849328154,-5.184484221930797,-1.827553254799232,1.529377712332333,0.6138510849328154,0.30867554246630946,3.6656065095978745,-11.898346156193927,-166.01199510177938
344,2.1397287972653447,0.4612633136995624,0.6138510849328154,-1.674965483565979,4.7337209082306435,-0.3016755424667024,2.292316568498598,1.529377712332333,-1.5223777123327258,-1.369789941099473,0.6138510849328154,-0.9120266273997142,-0.1490877712334494,-2.437904339732244,-1.827553254799232,1.529377712332333,0.30867554246630946,0.4612633136995624,3.6656065095978745,-8.846590731528869,-166.01199510177938
348,3.8181942808311273,1.834553254798839,0.6138510849328154,-0.4542633136999553,5.3440719931636576,0.15608777123305648,3.2078431958981155,2.1397287972653447,-1.0646143986329673,-1.0646143986329673,1.2242021698658272,-0.1490877712334494,0.6138510849328154,3.97078205206438,-0.9120266273997142,0.9190266273993212,1.0716143986325743,0.15608777123305648,3.8181942808311273,-10.52505621509465,-165.7068195593129
352,1.2242021698658272,0.7664388561660683,0.7664388561660683,0.30867554246630946,5.038896450697152,0.6138510849328154,3.2078431958981155,2.1397287972653447,0.0034999999998035487,-0.4542633136999553,1.2242021698658272,0.30867554246630946,1.0716143986325743,5.4966597643969095,-1.0646143986329673,-0.1490877712334494,1.2242021698658272,0.15608777123305648,3.97078205206438,5.6492475356301615,-164.79129293191338
355,-1.369789941099473,-1.369789941099473,0.9190266273993212,-0.6068510849332083,4.7337209082306435,0.15608777123305648,2.4449043397318513,1.3767899410990798,0.30867554246630946,-0.4542633136999553,-0.1490877712334494,-0.4542633136999553,0.0034999999998035487,2.7500798821983556,-2.132728797265738,0.0034999999998035487,0.9190266273993212,0.30867554246630946,4.886308679463898,32.046931958982924,-164.18094184698037
359,-1.827553254799232,-1.827553254799232,0.4612633136995624,-1.9801410260324848,4.428545365764139,-1.0646143986329673,1.529377712332333,0.4612633136995624,-0.7594388561664611,-0.9120266273997142,-1.2172021698662199,-1.369789941099473,-1.2172021698662199,0.9190266273993212,-3.048255424665256,0.4612633136995624,0.15608777123305648,0.30867554246630946,4.275957594530887,37.08232840968027,-164.18094184698037
363,-0.3016755424667024,-0.3016755424667024,-0.3016755424667024,-2.132728797265738,4.428545365764139,-1.827553254799232,1.3767899410990798,0.6138510849328154,-1.674965483565979,-1.5223777123327258,-1.2172021698662199,-1.5223777123327258,-1.5223777123327258,1.0716143986325743,-3.2008431958985084,0.15608777123305648,0.0034999999998035487,0.0034999999998035487,2.4449043397318513,28.384825449384852,-164.18094184698037
367,0.9190266273993212,0.7664388561660683,-0.4542633136999553,-1.369789941099473,4.275957594530887,-1.674965483565979,1.6819654835655862,1.2242021698658272,-1.9801410260324848,-1.827553254799232,-0.6068510849332083,-1.0646143986329673,-0.9120266273997142,0.7664388561660683,-2.5904921109654966,-0.6068510849332083,0.30867554246630946,-0.1490877712334494,1.2242021698658272,30.673642017883648,-164.0283540757471
371,0.9190266273993212,0.0034999999998035487,-0.3016755424667024,-1.0646143986329673,4.275957594530887,-0.7594388561664611,2.1397287972653447,1.0716143986325743,-1.369789941099473,-1.827553254799232,-0.3016755424667024,-0.4542633136999553,-0.3016755424667024,0.6138510849328154,-2.285316568498991,-1.2172021698662199,0.6138510849328154,-0.1490877712334494,1.529377712332333,35.709038468580985,-163.72317853328062
375,-0.6068510849332083,-1.5223777123327258,-0.1490877712334494,-1.369789941099473,4.275957594530887,-0.4542633136999553,2.1397287972653447,0.30867554246630946,-1.674965483565979,-1.674965483565979,-0.7594388561664611,-0.7594388561664611,-0.7594388561664611,0.7664388561660683,-2.8956676534320023,-1.0646143986329673,0.6138510849328154,-0.1490877712334494,1.987141026032092,33.87798521378196,-163.2654152195809
379,-1.9801410260324848,-2.285316568498991,-0.3016755424667024,-2.285316568498991,3.8181942808311273,-1.369789941099473,1.6819654835655862,0.0034999999998035487,-2.437904339732244,-1.827553254799232,-1.0646143986329673,-1.5223777123327258,-1.5223777123327258,0.6138510849328154,-3.2008431958985084,-1.0646143986329673,0.15608777123305648,-0.1490877712334494,1.834553254798839,33.1150463576157,-163.2654152195809
383,-1.2172021698662199,-1.369789941099473,-0.4542633136999553,-2.437904339732244,4.123369823297634,-2.132728797265738,1.3767899410990798,0.6138510849328154,-2.5904921109654966,-1.827553254799232,-1.0646143986329673,-1.827553254799232,-1.674965483565979,0.0034999999998035487,-2.743079882198749,-0.9120266273997142,-0.1490877712334494,0.0034999999998035487,1.529377712332333,34.18316075624847,-163.11282744834762
387,0.30867554246630946,0.15608777123305648,-0.3016755424667024,-1.5223777123327258,4.886308679463898,-1.5223777123327258,1.6819654835655862,1.0716143986325743,-1.674965483565979,-1.5223777123327258,-0.4542633136999553,-1.369789941099473,-0.9120266273997142,-0.3016755424667024,-2.285316568498991,-0.9120266273997142,0.4612633136995624,0.30867554246630946,1.0716143986325743,32.96245858638244,-162.8076519058811
391,0.30867554246630946,0.30867554246630946,-0.1490877712334494,-0.4542633136999553,5.4966597643969095,-0.6068510849332083,2.292316568498598,1.0716143986325743,-0.4542633136999553,-0.9120266273997142,-0.3016755424667024,-1.0646143986329673,-0.6068510849332083,0.15608777123305648,-2.132728797265738,-1.5223777123327258,0.6138510849328154,0.15608777123305648,1.529377712332333,32.199519730216174,-162.34988859218134
395,-1.0646143986329673,-1.2172021698662199,0.30867554246630946,-0.7594388561664611,5.191484221930403,-0.4542633136999553,1.987141026032092,0.7664388561660683,-0.6068510849332083,-0.7594388561664611,-1.2172021698662199,-0.9120266273997142,-1.2172021698662199,0.15608777123305648,-2.5904921109654966,-1.827553254799232,0.6138510849328154,-0.1490877712334494,2.4449043397318513,33.7253974425487,-162.34988859218134
398,-1.674965483565979,-1.9801410260324848,0.15608777123305648,-1.674965483565979,4.5811331369973916,-1.0646143986329673,1.2242021698658272,0.30867554246630946,-1.5223777123327258,-1.2172021698662199,-1.674965483565979,-1.2172021698662199,-1.827553254799232,-1.0646143986329673,-3.048255424665256,-1.5223777123327258,0.6138510849328154,0.15608777123305648,2.7500798821983556,36.01421401104749,-162.0447130497148
402,-0.6068510849332083,-0.3016755424667024,-0.3016755424667024,-1.9801410260324848,4.275957594530887,-1.369789941099473,1.0716143986325743,0.30867554246630946,-1.9801410260324848,-1.827553254799232,-1.0646143986329673,-1.5223777123327258,-1.9801410260324848,-2.8956676534320023,-2.743079882198749,-1.369789941099473,0.6138510849328154,0.30867554246630946,1.987141026032092,30.521054246650394,-161.5869497360151
406,0.9190266273993212,1.3767899410990798,-0.7594388561664611,-1.369789941099473,4.275957594530887,-1.0646143986329673,1.2242021698658272,0.6138510849328154,-1.9801410260324848,-2.285316568498991,-0.4542633136999553,-1.0646143986329673,-1.674965483565979,-2.8956676534320023,-2.5904921109654966,-1.9801410260324848,0.9190266273993212,0.0034999999998035487,1.834553254798839,-18.1544447767573,-161.43436196478183
410,1.529377712332333,0.9190266273993212,-0.1490877712334494,-0.1490877712334494,4.428545365764139,-0.1490877712334494,1.2242021698658272,0.4612633136995624,-2.437904339732244,-2.743079882198749,-0.3016755424667024,-0.6068510849332083,-1.5223777123327258,-0.6068510849332083,-3.048255424665256,-3.048255424665256,1.529377712332333,0.0034999999998035487,1.834553254798839,-152.7368590044864,-161.1291864223153
414,0.6138510849328154,-0.6068510849332083,0.30867554246630946,0.30867554246630946,4.428545365764139,0.15608777123305648,0.9190266273993212,-0.3016755424667024,-3.2008431958985084,-3.81119428083152,0.30867554246630946,-0.4542633136999553,-1.2172021698662199,1.3767899410990798,-3.6586065095982674,-3.81119428083152,1.6819654835655862,0.15608777123305648,2.292316568498598,-312.8014310281687,-160.5188353373823
418,-2.285316568498991,-1.0646143986329673,0.0034999999998035487,-0.7594388561664611,4.123369823297634,-0.7594388561664611,0.30867554246630946,-0.4542633136999553,-4.26895759453128,-4.574133136997785,0.15608777123305648,-1.0646143986329673,-1.9801410260324848,0.9190266273993212,-4.726720908231037,-3.81119428083152,1.0716143986325743,0.0034999999998035487,2.4449043397318513,-319.51529296243183,-160.21365979491574
422,-3.2008431958985084,0.0034999999998035487,-1.2172021698662199,-1.369789941099473,3.6656065095978745,-1.0646143986329673,0.0034999999998035487,0.30867554246630946,-4.879308679464291,-4.116369823298026,-1.5223777123327258,-0.6068510849332083,-4.4215453657645325,0.7664388561660683,-5.794835306863807,-2.285316568498991,0.6138510849328154,-0.1490877712334494,1.987141026032092,-43.331427030244036,-160.21365979491574
426,-0.3016755424667024,1.529377712332333,-1.9801410260324848,-0.6068510849332083,3.2078431958981155,0.30867554246630946,0.4612633136995624,1.987141026032092,-3.6586065095982674,-1.9801410260324848,-3.048255424665256,0.7664388561660683,-6.557774163030072,2.292316568498598,-5.642247535630556,0.0034999999998035487,0.6138510849328154,0.15608777123305648,1.529377712332333,409.3964902188175,-160.21365979491574
430,0.30867554246630946,1.3767899410990798,-2.5904921109654966,0.30867554246630946,2.7500798821983556,1.529377712332333,1.3767899410990798,3.2078431958981155,-1.2172021698662199,-0.1490877712334494,-3.9637820520647726,1.0716143986325743,-7.320713019196337,2.4449043397318513,-5.031896450697544,1.529377712332333,0.30867554246630946,-0.1490877712334494,1.987141026032092,727.2368176976834,-159.75589648121604
434,-2.8956676534320023,-1.0646143986329673,-2.743079882198749,0.0034999999998035487,2.292316568498598,1.834553254798839,1.3767899410990798,2.9026676534316094,0.0034999999998035487,0.0034999999998035487,-4.574133136997785,-0.1490877712334494,-6.710361934263327,0.15608777123305648,-4.879308679464291,0.6138510849328154,0.15608777123305648,-0.6068510849332083,3.2078431958981155,656.8938551591538,-159.14554539628304
438,-3.5060187383650145,-2.743079882198749,-1.827553254799232,-1.0646143986329673,3.0552554246648627,0.6138510849328154,0.9190266273993212,1.6819654835655862,-1.0646143986329673,-1.2172021698662199,-3.5060187383650145,-1.0646143986329673,-5.33707199316405,-0.6068510849332083,-4.574133136997785,-1.0646143986329673,0.4612633136995624,-0.3016755424667024,3.8181942808311273,277.1028925595872,-158.53519431135
441,-0.9120266273997142,-1.674965483565979,-0.9120266273997142,-1.827553254799232,4.428545365764139,-0.4542633136999553,0.9190266273993212,1.2242021698658272,-2.437904339732244,-1.9801410260324848,-1.674965483565979,-0.7594388561664611,-3.81119428083152,1.2242021698658272,-3.6586065095982674,-1.5223777123327258,1.2242021698658272,0.30867554246630946,3.5130187383646216,-14.339750495925975,-158.2300187688835
445,0.15608777123305648,0.15608777123305648,-0.6068510849332083,-1.2172021698662199,4.886308679463898,0.0034999999998035487,1.3767899410990798,1.834553254798839,-2.437904339732244,-1.9801410260324848,-0.9120266273997142,-0.6068510849332083,-3.6586065095982674,1.987141026032092,-2.8956676534320023,-1.5223777123327258,1.529377712332333,0.4612633136995624,2.7500798821983556,-3.3534309671317617,-157.924843226417
449,-1.0646143986329673,0.15608777123305648,-0.7594388561664611,0.0034999999998035487,4.886308679463898,0.9190266273993212,1.529377712332333,1.6819654835655862,-1.827553254799232,-2.285316568498991,-1.369789941099473,-0.7594388561664611,-4.574133136997785,0.9190266273993212,-2.8956676534320023,-1.827553254799232,1.3767899410990798,0.30867554246630946,2.4449043397318513,81.33278206732362,-157.46707991271722
453,-2.437904339732244,-1.9801410260324848,-0.6068510849332083,-0.4542633136999553,4.886308679463898,1.529377712332333,1.3767899410990798,1.2242021698658272,-1.369789941099473,-2.285316568498991,-1.827553254799232,-1.369789941099473,-4.574133136997785,0.7664388561660683,-2.5904921109654966,-2.285316568498991,1.2242021698658272,0.30867554246630946,2.9026676534316094,59.20755523850194,-156.8567288277842
457,-2.8956676534320023,-2.8956676534320023,-0.6068510849332083,-1.5223777123327258,4.886308679463898,1.529377712332333,1.3767899410990798,1.3767899410990798,-1.2172021698662199,-1.827553254799232,-1.827553254799232,-1.674965483565979,-2.8956676534320023,1.2242021698658272,-2.437904339732244,-1.674965483565979,1.0716143986325743,0.4612633136995624,3.6656065095978745,31.436580874049916,-156.70414105655095
461,-2.437904339732244,-1.369789941099473,-0.4542633136999553,-1.827553254799232,4.886308679463898,1.3767899410990798,0.9190266273993212,1.834553254798839,-1.5223777123327258,-1.9801410260324848,-1.827553254799232,-1.369789941099473,-1.5223777123327258,0.9190266273993212,-2.743079882198749,-0.9120266273997142,0.9190266273993212,0.6138510849328154,3.0552554246648627,54.17215878780461,-156.8567288277842
465,-1.674965483565979,-0.1490877712334494,-0.9120266273997142,-1.674965483565979,4.275957594530887,1.0716143986325743,0.7664388561660683,1.987141026032092,-2.285316568498991,-2.5904921109654966,-1.9801410260324848,-1.2172021698662199,-1.9801410260324848,-0.1490877712334494,-2.8956676534320023,-1.2172021698662199,0.7664388561660683,0.6138510849328154,1.529377712332333,60.58084517960122,-156.39896551408447
469,-1.369789941099473,-0.7594388561664611,-1.2172021698662199,-1.5223777123327258,3.8181942808311273,1.529377712332333,0.9190266273993212,1.529377712332333,-2.5904921109654966,-2.5904921109654966,-2.132728797265738,-1.369789941099473,-2.5904921109654966,-1.369789941099473,-2.8956676534320023,-2.437904339732244,0.7664388561660683,0.30867554246630946,0.7664388561660683,44.86430474257617,-155.78861442915147
473,-1.827553254799232,-2.437904339732244,-1.2172021698662199,-1.5223777123327258,3.8181942808311273,2.1397287972653447,1.0716143986325743,1.2242021698658272,-1.5223777123327258,-1.9801410260324848,-2.437904339732244,-1.674965483565979,-2.5904921109654966,-1.5223777123327258,-3.048255424665256,-2.8956676534320023,0.7664388561660683,0.0034999999998035487,1.834553254798839,44.40654142887641,-155.63602665791822
477,-2.285316568498991,-3.81119428083152,-1.369789941099473,-1.674965483565979,3.8181942808311273,1.834553254798839,0.7664388561660683,1.3767899410990798,-1.0646143986329673,-1.827553254799232,-2.5904921109654966,-1.827553254799232,-2.437904339732244,0.6138510849328154,-3.3534309671317617,-2.132728797265738,0.4612633136995624,0.0034999999998035487,3.2078431958981155,50.66264004943978,-155.33085111545168
480,-2.743079882198749,-3.2008431958985084,-1.827553254799232,-1.9801410260324848,3.6656065095978745,0.7664388561660683,0.4612633136995624,1.3767899410990798,-2.132728797265738,-1.827553254799232,-2.5904921109654966,-1.9801410260324848,-2.437904339732244,2.9026676534316094,-3.3534309671317617,-1.827553254799232,0.0034999999998035487,0.0034999999998035487,3.2078431958981155,47.61088462477473,-154.72050003051868
484,-3.048255424665256,-1.0646143986329673,-1.369789941099473,-1.9801410260324848,3.6656065095978745,0.7664388561660683,1.3767899410990798,1.529377712332333,-2.285316568498991,-1.827553254799232,-1.674965483565979,-1.827553254799232,-2.132728797265738,2.1397287972653447,-2.285316568498991,-1.827553254799232,0.6138510849328154,0.15608777123305648,2.7500798821983556,44.253953657643144,-154.56791225928544
488,-3.3534309671317617,0.15608777123305648,-0.4542633136999553,-1.0646143986329673,3.97078205206438,1.6819654835655862,2.292316568498598,2.1397287972653447,-1.0646143986329673,-1.2172021698662199,-1.2172021698662199,-1.0646143986329673,-1.2172021698662199,0.4612633136995624,-1.5223777123327258,-1.827553254799232,1.3767899410990798,0.30867554246630946,2.9026676534316094,43.94877811517665,-154.4153244880522
492,-3.3534309671317617,-1.369789941099473,-0.4542633136999553,-0.6068510849332083,3.97078205206438,2.292316568498598,2.292316568498598,2.1397287972653447,-0.1490877712334494,-0.7594388561664611,-1.5223777123327258,-0.7594388561664611,-0.7594388561664611,0.4612633136995624,-1.5223777123327258,-2.132728797265738,1.3767899410990798,-0.1490877712334494,3.3604309671313684,41.507373775444606,-153.65238563188592
496,-1.5223777123327258,-3.5060187383650145,-0.9120266273997142,-1.5223777123327258,4.123369823297634,2.1397287972653447,1.529377712332333,1.529377712332333,-0.9120266273997142,-0.9120266273997142,-2.285316568498991,-1.9801410260324848,-1.369789941099473,0.9190266273993212,-2.132728797265738,-2.285316568498991,0.9190266273993212,-0.3016755424667024,3.5130187383646216,38.760793893246046,-153.04203454695292
500,-0.3016755424667024,-3.3534309671317617,-0.7594388561664611,-2.437904339732244,4.428545365764139,1.3767899410990798,1.2242021698658272,1.3767899410990798,-2.132728797265738,-1.5223777123327258,-2.437904339732244,-3.048255424665256,-2.132728797265738,0.15608777123305648,-2.5904921109654966,-2.132728797265738,0.30867554246630946,0.0034999999998035487,3.0552554246648627,38.150442808313045,-152.7368590044864
504,-0.6068510849332083,-1.5223777123327258,-1.0646143986329673,-2.437904339732244,4.123369823297634,0.6138510849328154,1.3767899410990798,1.6819654835655862,-2.437904339732244,-1.9801410260324848,-2.285316568498991,-2.8956676534320023,-2.5904921109654966,-0.6068510849332083,-2.5904921109654966,-2.437904339732244,-0.1490877712334494,0.30867554246630946,1.6819654835655862,36.31938955351401,-152.7368590044864
508,-0.9120266273997142,-0.7594388561664611,-1.827553254799232,-2.132728797265738,3.3604309671313684,0.9190266273993212,1.987141026032092,1.834553254798839,-1.674965483565979,-1.9801410260324848,-2.132728797265738,-2.437904339732244,-2.437904339732244,-0.4542633136999553,-2.437904339732244,-3.5060187383650145,0.0034999999998035487,-0.1490877712334494,0.9190266273993212,32.50469527268268,-152.58427123325316
512,-1.2172021698662199,-1.827553254799232,-1.827553254799232,-1.9801410260324848,2.9026676534316094,1.987141026032092,1.834553254798839,1.529377712332333,-0.6068510849332083,-1.5223777123327258,-2.437904339732244,-2.5904921109654966,-2.132728797265738,0.15608777123305648,-2.285316568498991,-4.116369823298026,0.15608777123305648,-0.3016755424667024,1.834553254798839,30.368466475417144,-151.97392014832013
516,-2.132728797265738,-3.5060187383650145,-1.0646143986329673,-2.5904921109654966,3.0552554246648627,1.987141026032092,1.3767899410990798,1.0716143986325743,-0.7594388561664611,-1.5223777123327258,-3.2008431958985084,-3.3534309671317617,-2.5904921109654966,0.15608777123305648,-2.743079882198749,-3.5060187383650145,-0.4542633136999553,0.15608777123305648,2.7500798821983556,30.06329093295064,-151.36356906338713
520,-3.048255424665256,-3.9637820520647726,-0.9120266273997142,-3.6586065095982674,3.0552554246648627,1.0716143986325743,1.2242021698658272,0.9190266273993212,-1.674965483565979,-1.9801410260324848,-3.9637820520647726,-3.81119428083152,-3.2008431958985084,-1.674965483565979,-3.2008431958985084,-2.743079882198749,-1.0646143986329673,0.30867554246630946,1.987141026032092,29.30035207678437,-150.90580574968737
523,-2.437904339732244,-2.5904921109654966,-1.369789941099473,-3.81119428083152,2.9026676534316094,0.30867554246630946,1.529377712332333,1.2242021698658272,-2.437904339732244,-2.437904339732244,-3.6586065095982674,-3.3534309671317617,-3.048255424665256,-4.4215453657645325,-2.8956676534320023,-2.8956676534320023,-0.9120266273997142,0.15608777123305648,0.9190266273993212,27.011535508285576,-150.6006302072209
527,-1.674965483565979,-1.5223777123327258,-1.827553254799232,-3.2008431958985084,2.597492110965104,0.6138510849328154,1.987141026032092,1.2242021698658272,-2.132728797265738,-2.743079882198749,-3.3534309671317617,-2.437904339732244,-2.743079882198749,-3.9637820520647726,-2.285316568498991,-3.3534309671317617,-0.6068510849332083,0.15608777123305648,0.9190266273993212,23.044253456221,-150.29545466475432
531,-2.437904339732244,-2.743079882198749,-1.827553254799232,-3.2008431958985084,2.292316568498598,1.3767899410990798,1.987141026032092,0.6138510849328154,-1.2172021698662199,-2.5904921109654966,-3.5060187383650145,-2.285316568498991,-2.8956676534320023,-1.0646143986329673,-2.5904921109654966,-3.6586065095982674,-0.9120266273997142,0.15608777123305648,1.6819654835655862,18.466620319223413,-149.37992803735486
535,-3.5060187383650145,-4.726720908231037,-1.5223777123327258,-3.5060187383650145,2.4449043397318513,1.6819654835655862,1.987141026032092,0.0034999999998035487,-0.4542633136999553,-1.827553254799232,-3.9637820520647726,-2.5904921109654966,-2.8956676534320023,-1.0646143986329673,-2.5904921109654966,-3.5060187383650145,-1.5223777123327258,-0.1490877712334494,3.2078431958981155,15.2622771233251,-148.46440140995531
539,-3.048255424665256,-4.574133136997785,-1.369789941099473,-3.6586065095982674,3.3604309671313684,1.0716143986325743,1.987141026032092,0.15608777123305648,-0.6068510849332083,-1.5223777123327258,-3.81119428083152,-3.2008431958985084,-2.743079882198749,-2.285316568498991,-2.437904339732244,-2.743079882198749,-1.5223777123327258,-0.1490877712334494,3.97078205206438,14.194162724692328,-147.8540503250223
543,-1.9801410260324848,-2.5904921109654966,-0.9120266273997142,-3.5060187383650145,3.8181942808311273,0.6138510849328154,1.987141026032092,0.4612633136995624,-1.2172021698662199,-1.827553254799232,-3.3534309671317617,-2.8956676534320023,-2.5904921109654966,-0.3016755424667024,-2.285316568498991,-2.437904339732244,-1.0646143986329673,0.0034999999998035487,3.2078431958981155,12.057933927426784,-147.701462553789
547,-1.674965483565979,-0.9120266273997142,-0.7594388561664611,-2.8956676534320023,3.8181942808311273,0.7664388561660683,2.292316568498598,1.0716143986325743,-0.9120266273997142,-1.674965483565979,-2.8956676534320023,-1.9801410260324848,-2.437904339732244,2.1397287972653447,-1.674965483565979,-2.743079882198749,-0.6068510849332083,0.15608777123305648,2.7500798821983556,6.412186391796428,-147.24369924008928
551,-2.132728797265738,-1.5223777123327258,-0.6068510849332083,-1.827553254799232,3.97078205206438,1.6819654835655862,3.2078431958981155,1.529377712332333,0.6138510849328154,-0.7594388561664611,-2.743079882198749,-1.0646143986329673,-2.743079882198749,1.6819654835655862,-0.6068510849332083,-3.048255424665256,-0.1490877712334494,0.0034999999998035487,3.8181942808311273,0.9190266273993212,-146.93852369762277
555,-3.3534309671317617,-3.3534309671317617,-0.7594388561664611,-1.674965483565979,4.275957594530887,2.292316568498598,3.8181942808311273,1.529377712332333,1.529377712332333,-0.1490877712334494,-2.437904339732244,-1.369789941099473,-3.2008431958985084,0.9190266273993212,-0.6068510849332083,-2.437904339732244,-0.4542633136999553,-0.1490877712334494,4.428545365764139,-0.3016755424667024,-146.02299707022328
559,-4.726720908231037,-3.9637820520647726,-1.2172021698662199,-2.743079882198749,4.123369823297634,1.6819654835655862,3.3604309671313684,1.2242021698658272,0.4612633136995624,-0.7594388561664611,-2.5904921109654966,-2.285316568498991,-2.437904339732244,1.529377712332333,-1.674965483565979,-1.9801410260324848,-1.0646143986329673,-0.1490877712334494,3.5130187383646216,0.30867554246630946,-145.10747044282374
562,-3.81119428083152,-2.437904339732244,-1.0646143986329673,-3.2008431958985084,3.6656065095978745,1.2242021698658272,2.7500798821983556,0.7664388561660683,-0.7594388561664611,-1.5223777123327258,-2.5904921109654966,-2.437904339732244,-0.9120266273997142,1.2242021698658272,-1.9801410260324848,-2.132728797265738,-1.2172021698662199,0.0034999999998035487,2.7500798821983556,-2.132728797265738,-144.64970712912398
566,-0.3016755424667024,-0.4542633136999553,-0.4542633136999553,-2.5904921109654966,3.8181942808311273,1.529377712332333,3.2078431958981155,0.9190266273993212,-0.4542633136999553,-1.2172021698662199,-1.9801410260324848,-1.5223777123327258,-0.3016755424667024,0.30867554246630946,-1.0646143986329673,-2.437904339732244,-0.6068510849332083,0.0034999999998035487,2.4449043397318513,-6.40518639179682,-144.49711935789077
570,0.9190266273993212,-0.6068510849332083,-0.3016755424667024,-1.674965483565979,3.8181942808311273,2.4449043397318513,3.8181942808311273,1.2242021698658272,0.30867554246630946,-0.3016755424667024,-1.369789941099473,-0.7594388561664611,-1.2172021698662199,0.4612633136995624,-0.3016755424667024,-2.5904921109654966,0.30867554246630946,-0.3016755424667024,2.597492110965104,-9.151766273995372,-143.88676827295774
574,-1.2172021698662199,-2.5904921109654966,-0.6068510849332083,-1.827553254799232,2.9026676534316094,2.597492110965104,3.8181942808311273,1.2242021698658272,0.9190266273993212,0.30867554246630946,-1.9801410260324848,-0.7594388561664611,-1.827553254799232,1.2242021698658272,-0.6068510849332083,-2.743079882198749,0.15608777123305648,-0.3016755424667024,3.0552554246648627,-10.677643986327904,-142.97124164555822
578,-1.9801410260324848,-3.3534309671317617,-0.6068510849332083,-2.743079882198749,2.4449043397318513,1.834553254798839,3.3604309671313684,0.9190266273993212,1.0716143986325743,0.15608777123305648,-2.5904921109654966,-1.5223777123327258,-1.2172021698662199,1.6819654835655862,-0.9120266273997142,-2.437904339732244,-0.4542633136999553,0.0034999999998035487,3.3604309671313684,-11.593170613727422,-142.20830278939198
582,-0.3016755424667024,-1.827553254799232,-0.6068510849332083,-3.2008431958985084,2.4449043397318513,1.3767899410990798,2.9026676534316094,1.0716143986325743,0.30867554246630946,-0.1490877712334494,-2.743079882198749,-1.827553254799232,-0.4542633136999553,0.7664388561660683,-0.7594388561664611,-2.285316568498991,-0.4542633136999553,0.15608777123305648,2.4449043397318513,-12.356109469893685,-141.90312724692544
586,0.7664388561660683,0.0034999999998035487,-0.6068510849332083,-2.8956676534320023,1.987141026032092,1.834553254798839,3.0552554246648627,1.529377712332333,0.0034999999998035487,-0.1490877712334494,-2.132728797265738,-1.369789941099473,-0.4542633136999553,-0.4542633136999553,-0.1490877712334494,-2.437904339732244,-0.3016755424667024,0.15608777123305648,1.0716143986325743,-14.492338267159223,-141.75053947569216
590,0.15608777123305648,-0.1490877712334494,-0.7594388561664611,-1.827553254799232,0.9190266273993212,2.597492110965104,3.2078431958981155,1.2242021698658272,0.9190266273993212,0.4612633136995624,-1.827553254799232,-0.9120266273997142,-0.4542633136999553,-0.1490877712334494,0.15608777123305648,-2.743079882198749,-0.4542633136999553,0.15608777123305648,0.7664388561660683,-17.39150592059103,-140.98760061952592
594,-1.0646143986329673,-1.369789941099473,-0.6068510849332083,-1.827553254799232,0.9190266273993212,2.9026676534316094,3.0552554246648627,1.0716143986325743,2.1397287972653447,1.0716143986325743,-2.132728797265738,-0.9120266273997142,-0.4542633136999553,0.6138510849328154,-0.1490877712334494,-2.5904921109654966,-0.3016755424667024,0.15608777123305648,1.529377712332333,-18.917383632923567,-139.76689844965986
598,-1.5223777123327258,-2.132728797265738,-0.1490877712334494,-2.437904339732244,1.529377712332333,2.597492110965104,2.7500798821983556,1.3767899410990798,2.292316568498598,0.9190266273993212,-2.132728797265738,-1.0646143986329673,-0.3016755424667024,0.6138510849328154,-0.3016755424667024,-2.285316568498991,0.0034999999998035487,0.30867554246630946,2.1397287972653447,-18.76479586169031,-139.00395959349365
602,-0.4542633136999553,-1.2172021698662199,0.0034999999998035487,-2.5904921109654966,0.7664388561660683,1.834553254798839,2.292316568498598,1.3767899410990798,1.529377712332333,0.4612633136995624,-1.9801410260324848,-1.0646143986329673,-0.3016755424667024,-1.369789941099473,-0.1490877712334494,-1.9801410260324848,0.0034999999998035487,0.0034999999998035487,1.3767899410990798,-19.37514694662332,-138.54619627979392
605,1.2242021698658272,0.9190266273993212,-0.1490877712334494,-1.9801410260324848,0.0034999999998035487,1.3767899410990798,2.292316568498598,1.2242021698658272,1.3767899410990798,0.30867554246630946,-1.5223777123327258,-0.9120266273997142,-0.3016755424667024,-5.031896450697544,0.15608777123305648,-2.132728797265738,0.15608777123305648,-0.1490877712334494,0.0034999999998035487,-21.663963515122113,-137.93584519486086
609,0.9190266273993212,1.2242021698658272,-0.3016755424667024,-1.369789941099473,0.15608777123305648,1.987141026032092,2.597492110965104,1.6819654835655862,2.4449043397318513,0.9190266273993212,-1.369789941099473,-0.1490877712334494,0.0034999999998035487,-5.4896597643973015,0.7664388561660683,-2.5904921109654966,0.4612633136995624,0.15608777123305648,0.4612633136995624,-23.95278008362091,-137.1729063386946
613,-0.9120266273997142,-0.3016755424667024,0.0034999999998035487,-1.0646143986329673,0.4612633136995624,2.9026676534316094,3.0552554246648627,1.6819654835655862,3.97078205206438,1.6819654835655862,-1.2172021698662199,0.6138510849328154,0.6138510849328154,0.30867554246630946,0.9190266273993212,-2.132728797265738,0.4612633136995624,0.15608777123305648,3.0552554246648627,-23.95278008362091,-136.40996748252834
617,-0.9120266273997142,-1.369789941099473,0.7664388561660683,-1.5223777123327258,0.0034999999998035487,2.4449043397318513,3.0552554246648627,1.529377712332333,4.275957594530887,1.987141026032092,-1.369789941099473,0.30867554246630946,0.30867554246630946,4.886308679463898,0.7664388561660683,-1.0646143986329673,0.30867554246630946,0.0034999999998035487,4.123369823297634,-23.189841227454647,-135.64702862636207
621,1.0716143986325743,-0.4542633136999553,1.0716143986325743,-2.285316568498991,-0.6068510849332083,1.3767899410990798,2.9026676534316094,1.834553254798839,3.6656065095978745,1.834553254798839,-1.0646143986329673,-0.3016755424667024,-0.3016755424667024,3.0552554246648627,0.9190266273993212,-0.4542633136999553,0.30867554246630946,0.0034999999998035487,3.0552554246648627,-23.49501676992115,-135.03667754142907
625,2.7500798821983556,1.529377712332333,0.30867554246630946,-1.9801410260324848,-0.7594388561664611,1.3767899410990798,2.9026676534316094,2.292316568498598,3.6656065095978745,1.529377712332333,-0.6068510849332083,0.0034999999998035487,-0.1490877712334494,1.0716143986325743,1.0716143986325743,-0.7594388561664611,0.7664388561660683,0.0034999999998035487,1.834553254798839,-23.189841227454647,-134.42632645649604
629,2.4449043397318513,1.834553254798839,-0.4542633136999553,-0.9120266273997142,-0.4542633136999553,2.4449043397318513,3.5130187383646216,2.597492110965104,4.5811331369973916,1.834553254798839,0.0034999999998035487,0.9190266273993212,0.4612633136995624,2.1397287972653447,1.2242021698658272,-1.369789941099473,1.2242021698658272,-0.1490877712334494,2.292316568498598,-22.884665684988136,-133.81597537156298
633,1.0716143986325743,1.0716143986325743,-0.1490877712334494,-0.1490877712334494,0.15608777123305648,3.5130187383646216,3.8181942808311273,2.7500798821983556,6.259598620563175,3.0552554246648627,0.30867554246630946,1.3767899410990798,0.7664388561660683,3.3604309671313684,1.3767899410990798,-1.0646143986329673,1.6819654835655862,-0.3016755424667024,3.8181942808311273,-22.121726828821874,-133.05303651539677
637,0.0034999999998035487,0.4612633136995624,0.7664388561660683,-0.3016755424667024,1.0716143986325743,3.3604309671313684,3.6656065095978745,2.9026676534316094,6.869949705496186,3.2078431958981155,0.30867554246630946,0.6138510849328154,0.7664388561660683,3.5130187383646216,1.2242021698658272,-0.4542633136999553,1.834553254798839,0.15608777123305648,3.97078205206438,-18.612208090457045,-131.98492211676398
641,0.9190266273993212,0.9190266273993212,0.9190266273993212,-1.0646143986329673,1.0716143986325743,2.4449043397318513,3.3604309671313684,2.597492110965104,5.801835306863415,2.292316568498598,0.0034999999998035487,0.0034999999998035487,0.0034999999998035487,2.9026676534316094,0.6138510849328154,-0.4542633136999553,1.2242021698658272,0.15608777123305648,3.0552554246648627,-13.424223868526454,-131.52715880306422
645,3.97078205206438,2.292316568498598,0.4612633136995624,-0.9120266273997142,0.7664388561660683,1.987141026032092,3.5130187383646216,2.597492110965104,5.038896450697152,1.834553254798839,0.0034999999998035487,0.4612633136995624,-1.0646143986329673,1.6819654835655862,0.6138510849328154,-0.7594388561664611,0.9190266273993212,-0.1490877712334494,2.4449043397318513,-10.830231757561156,-131.0693954893645
648,5.191484221930403,3.2078431958981155,0.30867554246630946,0.0034999999998035487,1.0716143986325743,2.9026676534316094,3.6656065095978745,2.9026676534316094,5.801835306863415,2.4449043397318513,0.6138510849328154,1.3767899410990798,-1.674965483565979,1.0716143986325743,1.6819654835655862,-0.9120266273997142,1.2242021698658272,0.0034999999998035487,2.292316568498598,-9.609529587695132,-130.30645663319822
652,3.0552554246648627,2.4449043397318513,0.6138510849328154,0.6138510849328154,1.2242021698658272,4.428545365764139,3.6656065095978745,3.0552554246648627,7.022537476729441,2.9026676534316094,0.6138510849328154,1.834553254798839,-1.2172021698662199,1.987141026032092,2.1397287972653447,-0.9120266273997142,1.834553254798839,0.15608777123305648,2.597492110965104,-6.710361934263327,-129.2383422345654
656,2.1397287972653447,1.2242021698658272,0.9190266273993212,0.30867554246630946,1.2242021698658272,4.428545365764139,4.123369823297634,2.9026676534316094,7.480300790429197,3.2078431958981155,-0.1490877712334494,1.6819654835655862,0.30867554246630946,2.9026676534316094,1.987141026032092,-0.3016755424667024,1.834553254798839,0.0034999999998035487,3.0552554246648627,-2.285316568498991,-128.32281560716592
660,3.6656065095978745,1.3767899410990798,0.9190266273993212,-0.4542633136999553,1.3767899410990798,3.5130187383646216,4.428545365764139,3.2078431958981155,7.175125247962693,3.2078431958981155,-0.1490877712334494,1.529377712332333,1.2242021698658272,2.9026676534316094,1.987141026032092,0.6138510849328154,1.6819654835655862,-0.1490877712334494,3.0552554246648627,-0.4542633136999553,-127.55987675099963
664,4.5811331369973916,3.3604309671313684,1.0716143986325743,0.0034999999998035487,1.3767899410990798,3.3604309671313684,4.428545365764139,3.97078205206438,6.717361934262934,3.0552554246648627,0.4612633136995624,2.292316568498598,1.3767899410990798,2.1397287972653447,2.597492110965104,0.9190266273993212,1.834553254798839,0.0034999999998035487,2.9026676534316094,-2.437904339732244,-127.10211343729988
668,4.428545365764139,4.428545365764139,1.2242021698658272,1.2242021698658272,0.6138510849328154,4.275957594530887,4.428545365764139,4.428545365764139,7.175125247962693,3.2078431958981155,1.2242021698658272,3.5130187383646216,1.3767899410990798,1.834553254798839,3.5130187383646216,0.4612633136995624,2.292316568498598,0.15608777123305648,3.3604309671313684,-6.710361934263327,-126.7969378948334
672,4.123369823297634,3.0552554246648627,1.3767899410990798,1.987141026032092,0.15608777123305648,4.886308679463898,4.886308679463898,4.428545365764139,8.853590731528476,3.6656065095978745,1.3767899410990798,3.6656065095978745,1.987141026032092,1.0716143986325743,3.8181942808311273,0.15608777123305648,2.4449043397318513,-0.1490877712334494,4.123369823297634,-9.304354045228626,-126.03399903866712
676,3.0552554246648627,1.2242021698658272,1.2242021698658272,1.0716143986325743,0.4612633136995624,4.7337209082306435,4.428545365764139,3.8181942808311273,9.463941816461489,3.8181942808311273,0.9190266273993212,2.7500798821983556,1.6819654835655862,0.7664388561660683,2.9026676534316094,0.30867554246630946,2.1397287972653447,-0.3016755424667024,4.275957594530887,-10.219880672628143,-125.11847241126762
680,2.4449043397318513,1.2242021698658272,0.9190266273993212,0.15608777123305648,0.9190266273993212,4.123369823297634,3.6656065095978745,3.6656065095978745,8.853590731528476,3.5130187383646216,0.4612633136995624,2.1397287972653447,0.7664388561660683,2.4449043397318513,2.4449043397318513,0.7664388561660683,1.3767899410990798,-0.3016755424667024,3.6656065095978745,-11.287995071260914,-124.50812132633459
684,3.2078431958981155,3.2078431958981155,1.0716143986325743,0.4612633136995624,1.0716143986325743,3.8181942808311273,3.8181942808311273,4.275957594530887,7.785476332895702,3.3604309671313684,0.9190266273993212,2.4449043397318513,0.15608777123305648,4.428545365764139,2.9026676534316094,1.0716143986325743,1.529377712332333,0.0034999999998035487,2.7500798821983556,-13.424223868526454,-124.05035801263485
688,3.97078205206438,4.123369823297634,0.9190266273993212,1.3767899410990798,0.7664388561660683,3.97078205206438,4.428545365764139,4.5811331369973916,7.938064104128956,3.6656065095978745,1.2242021698658272,2.9026676534316094,0.30867554246630946,2.9026676534316094,3.8181942808311273,0.9190266273993212,1.987141026032092,0.30867554246630946,2.7500798821983556,-15.71304043702525,-123.8977702414016
691,3.2078431958981155,2.7500798821983556,0.4612633136995624,1.2242021698658272,0.0034999999998035487,4.5811331369973916,4.7337209082306435,4.123369823297634,9.006178502761726,3.8181942808311273,0.4612633136995624,2.4449043397318513,0.7664388561660683,-0.3016755424667024,3.97078205206438,0.15608777123305648,1.834553254798839,0.15608777123305648,3.2078431958981155,-17.39150592059103,-123.13483138523532
695,1.987141026032092,0.7664388561660683,0.15608777123305648,0.4612633136995624,-0.6068510849332083,4.5811331369973916,4.275957594530887,3.5130187383646216,9.61652958769474,3.8181942808311273,-0.4542633136999553,1.529377712332333,1.3767899410990798,-0.4542633136999553,3.5130187383646216,0.0034999999998035487,1.0716143986325743,-0.1490877712334494,3.97078205206438,-16.781154835658022,-122.21930475783579
699,1.529377712332333,0.7664388561660683,0.7664388561660683,0.0034999999998035487,-0.6068510849332083,3.8181942808311273,3.8181942808311273,3.8181942808311273,9.158766273994981,3.5130187383646216,-0.4542633136999553,1.2242021698658272,1.2242021698658272,2.7500798821983556,3.2078431958981155,0.9190266273993212,1.2242021698658272,-0.4542633136999553,3.97078205206438,-14.64492603839248,-121.6089536729028
703,1.987141026032092,2.1397287972653447,0.9190266273993212,-0.1490877712334494,-0.7594388561664611,3.2078431958981155,3.97078205206438,4.275957594530887,8.548415189061968,3.2078431958981155,-0.4542633136999553,1.529377712332333,0.9190266273993212,4.275957594530887,3.0552554246648627,1.3767899410990798,1.3767899410990798,-0.3016755424667024,2.9026676534316094,-13.11904832605995,-121.76154144413607
707,2.4449043397318513,2.4449043397318513,0.15608777123305648,0.0034999999998035487,-1.0646143986329673,3.6656065095978745,4.275957594530887,4.123369823297634,8.395827417828716,3.2078431958981155,-0.7594388561664611,1.834553254798839,0.6138510849328154,3.0552554246648627,3.2078431958981155,0.9190266273993212,1.2242021698658272,0.15608777123305648,2.4449043397318513,-13.424223868526454,-121.3037781304363
711,1.529377712332333,1.529377712332333,-0.6068510849332083,0.4612633136995624,-1.2172021698662199,4.275957594530887,4.123369823297634,3.6656065095978745,9.006178502761726,3.6656065095978745,-0.7594388561664611,1.834553254798839,1.2242021698658272,2.7500798821983556,3.8181942808311273,0.0034999999998035487,1.0716143986325743,-0.1490877712334494,3.2078431958981155,-13.11904832605995,-120.38825150303678
715,-1.0646143986329673,0.30867554246630946,-0.1490877712334494,0.4612633136995624,-1.2172021698662199,4.123369823297634,3.6656065095978745,3.8181942808311273,9.158766273994981,4.428545365764139,-0.7594388561664611,1.3767899410990798,0.9190266273993212,3.5130187383646216,3.5130187383646216,0.15608777123305648,1.2242021698658272,-0.4542633136999553,4.123369823297634,-10.52505621509465,-119.6253126468705
719,-2.437904339732244,-0.1490877712334494,0.15608777123305648,-0.3016755424667024,-1.2172021698662199,3.6656065095978745,3.6656065095978745,3.97078205206438,8.395827417828716,4.275957594530887,-1.2172021698662199,0.9190266273993212,0.0034999999998035487,3.0552554246648627,2.597492110965104,1.2242021698658272,0.9190266273993212,0.0034999999998035487,3.5130187383646216,-6.40518639179682,-119.16754933317075
723,0.9190266273993212,0.9190266273993212,0.30867554246630946,-0.6068510849332083,-0.7594388561664611,3.5130187383646216,3.8181942808311273,4.275957594530887,7.632888561662451,3.8181942808311273,-1.2172021698662199,0.7664388561660683,0.0034999999998035487,2.292316568498598,2.7500798821983556,1.834553254798839,0.7664388561660683,0.30867554246630946,2.4449043397318513,-1.9801410260324848,-119.0149615619375
727,4.7337209082306435,2.292316568498598,0.30867554246630946,0.15608777123305648,-0.7594388561664611,3.8181942808311273,3.97078205206438,4.5811331369973916,7.785476332895702,3.6656065095978745,-0.4542633136999553,0.9190266273993212,0.6138510849328154,2.597492110965104,3.6656065095978745,1.529377712332333,1.3767899410990798,0.0034999999998035487,2.4449043397318513,0.6138510849328154,-118.86237379070423
730,3.2078431958981155,1.834553254798839,0.30867554246630946,0.7664388561660683,-1.2172021698662199,4.275957594530887,4.123369823297634,4.428545365764139,8.701002960295224,3.8181942808311273,-0.6068510849332083,0.9190266273993212,0.9190266273993212,2.7500798821983556,3.6656065095978745,0.9190266273993212,1.6819654835655862,-0.3016755424667024,3.0552554246648627,1.0716143986325743,-118.09943493453798
734,-0.1490877712334494,0.15608777123305648,-0.1490877712334494,0.15608777123305648,-1.369789941099473,4.275957594530887,4.123369823297634,4.123369823297634,9.158766273994981,4.123369823297634,-1.5223777123327258,0.7664388561660683,0.30867554246630946,2.597492110965104,3.0552554246648627,0.7664388561660683,0.9190266273993212,-0.1490877712334494,4.275957594530887,3.6656065095978745,-117.33649607837171
738,-0.3016755424667024,-0.4542633136999553,-0.6068510849332083,-0.7594388561664611,-1.369789941099473,3.8181942808311273,3.97078205206438,3.8181942808311273,8.395827417828716,3.97078205206438,-1.674965483565979,0.15608777123305648,-0.6068510849332083,2.292316568498598,2.4449043397318513,1.2242021698658272,0.30867554246630946,0.15608777123305648,4.5811331369973916,9.158766273994981,-117.18390830713848
742,1.2242021698658272,0.6138510849328154,-1.0646143986329673,-0.9120266273997142,-1.5223777123327258,3.3604309671313684,3.8181942808311273,4.123369823297634,7.175125247962693,3.2078431958981155,-1.2172021698662199,0.4612633136995624,-1.5223777123327258,1.987141026032092,2.597492110965104,1.834553254798839,0.6138510849328154,0.30867554246630946,3.5130187383646216,12.973460554826305,-117.03132053590521
746,2.1397287972653447,2.292316568498598,-0.9120266273997142,-0.1490877712334494,-1.2172021698662199,3.6656065095978745,4.275957594530887,5.191484221930403,7.022537476729441,2.9026676534316094,-1.0646143986329673,1.6819654835655862,-1.827553254799232,1.3767899410990798,3.0552554246648627,2.1397287972653447,1.2242021698658272,0.30867554246630946,2.1397287972653447,12.820872783593053,-116.72614499343872
750,1.6819654835655862,2.292316568498598,-0.3016755424667024,0.9190266273993212,-0.6068510849332083,4.886308679463898,4.886308679463898,5.4966597643969095,8.395827417828716,4.123369823297634,-1.2172021698662199,2.7500798821983556,-0.7594388561664611,0.30867554246630946,3.6656065095978745,2.292316568498598,1.6819654835655862,0.30867554246630946,2.597492110965104,11.142407300027271,-115.96320613727241
754,0.30867554246630946,0.30867554246630946,0.0034999999998035487,0.9190266273993212,-0.4542633136999553,5.3440719931636576,5.3440719931636576,5.038896450697152,9.61652958769474,5.6492475356301615,-1.2172021698662199,2.597492110965104,0.9190266273993212,-0.3016755424667024,3.8181942808311273,2.4449043397318513,1.2242021698658272,0.0034999999998035487,3.97078205206438,11.752758384960279,-115.20026728110619
758,-0.6068510849332083,-0.7594388561664611,0.15608777123305648,-0.3016755424667024,-0.9120266273997142,4.428545365764139,5.191484221930403,4.7337209082306435,9.769117358927993,5.6492475356301615,-1.2172021698662199,1.3767899410990798,1.3767899410990798,1.2242021698658272,3.5130187383646216,2.7500798821983556,0.7664388561660683,-0.1490877712334494,3.8181942808311273,19.076971404156424,-115.0476795098729
762,0.7664388561660683,0.7664388561660683,0.15608777123305648,-0.7594388561664611,-1.0646143986329673,3.5130187383646216,4.7337209082306435,4.886308679463898,9.158766273994981,4.886308679463898,-1.369789941099473,0.7664388561660683,0.7664388561660683,3.3604309671313684,3.3604309671313684,2.9026676534316094,0.9190266273993212,0.0034999999998035487,2.292316568498598,24.570131168553534,-115.0476795098729
766,2.597492110965104,2.7500798821983556,0.0034999999998035487,0.15608777123305648,-0.9120266273997142,3.8181942808311273,4.7337209082306435,5.191484221930403,8.701002960295224,4.428545365764139,-0.9120266273997142,1.0716143986325743,0.6138510849328154,3.2078431958981155,3.97078205206438,2.7500798821983556,1.2242021698658272,0.0034999999998035487,1.0716143986325743,14.80451380962534,-114.58991619617315
770,1.834553254798839,2.4449043397318513,-0.1490877712334494,0.9190266273993212,-1.2172021698662199,4.886308679463898,5.038896450697152,5.191484221930403,9.158766273994981,4.7337209082306435,-0.3016755424667024,1.3767899410990798,1.3767899410990798,2.292316568498598,4.886308679463898,2.4449043397318513,1.2242021698658272,-0.1490877712334494,1.834553254798839,-5.642247535630556,-113.97956511124012
773,-0.1490877712334494,1.6819654835655862,0.15608777123305648,0.6138510849328154,-1.0646143986329673,5.3440719931636576,5.191484221930403,4.886308679463898,10.532056215094258,5.801835306863415,-0.6068510849332083,1.529377712332333,1.834553254798839,1.2242021698658272,5.038896450697152,2.4449043397318513,1.2242021698658272,-0.1490877712334494,3.8181942808311273,-22.884665684988136,-113.52180179754039
777,0.0034999999998035487,2.597492110965104,0.7664388561660683,0.0034999999998035487,-0.4542633136999553,4.7337209082306435,5.3440719931636576,4.7337209082306435,11.142407300027271,6.717361934262934,-0.9120266273997142,1.2242021698658272,1.529377712332333,-0.6068510849332083,4.5811331369973916,3.2078431958981155,1.2242021698658272,-0.1490877712334494,5.191484221930403,-29.44593984801801,-113.52180179754039
781,0.7664388561660683,3.8181942808311273,0.7664388561660683,-0.1490877712334494,-0.1490877712334494,4.275957594530887,5.3440719931636576,5.038896450697152,10.532056215094258,6.869949705496186,-0.4542633136999553,1.0716143986325743,1.529377712332333,-0.9120266273997142,4.5811331369973916,4.123369823297634,1.529377712332333,0.15608777123305648,5.038896450697152,-22.121726828821874,-113.52180179754039
785,0.0034999999998035487,3.97078205206438,-0.1490877712334494,0.30867554246630946,-0.7594388561664611,4.123369823297634,5.038896450697152,5.6492475356301615,10.226880672627749,6.412186391796428,-0.1490877712334494,1.0716143986325743,1.529377712332333,1.6819654835655862,4.7337209082306435,4.428545365764139,1.529377712332333,0.30867554246630946,4.275957594530887,-7.931064104129349,-113.06403848384062
789,0.0034999999998035487,3.6656065095978745,-0.1490877712334494,0.9190266273993212,-1.0646143986329673,4.428545365764139,5.191484221930403,5.801835306863415,11.142407300027271,6.564774163029679,-0.1490877712334494,1.529377712332333,1.529377712332333,3.8181942808311273,4.7337209082306435,4.123369823297634,1.2242021698658272,0.4612633136995624,4.275957594530887,-2.437904339732244,-112.45368739890762
793,1.834553254798839,2.7500798821983556,0.6138510849328154,1.2242021698658272,-0.6068510849332083,5.038896450697152,5.3440719931636576,5.3440719931636576,11.905346156193533,7.022537476729441,0.0034999999998035487,1.6819654835655862,1.3767899410990798,3.5130187383646216,4.428545365764139,3.8181942808311273,1.2242021698658272,0.30867554246630946,5.038896450697152,-3.5060187383650145,-112.14851185644112
797,1.6819654835655862,1.529377712332333,0.6138510849328154,0.7664388561660683,-0.7594388561664611,4.275957594530887,5.038896450697152,4.886308679463898,11.447582842493775,7.022537476729441,-0.3016755424667024,1.6819654835655862,0.4612633136995624,3.3604309671313684,4.275957594530887,4.275957594530887,1.2242021698658272,0.15608777123305648,5.191484221930403,11.600170613727029,-111.99592408520785
801,0.30867554246630946,1.834553254798839,-0.4542633136999553,0.0034999999998035487,-1.5223777123327258,3.2078431958981155,4.7337209082306435,4.7337209082306435,10.68464398632751,6.717361934262934,-0.6068510849332083,1.3767899410990798,-0.6068510849332083,3.0552554246648627,4.275957594530887,5.3440719931636576,1.0716143986325743,0.15608777123305648,4.428545365764139,38.608206122012795,-112.14851185644112
805,1.2242021698658272,3.97078205206438,-0.7594388561664611,-0.3016755424667024,-1.827553254799232,3.2078431958981155,4.7337209082306435,5.4966597643969095,10.379468443861004,6.412186391796428,-0.3016755424667024,1.3767899410990798,-1.2172021698662199,1.987141026032092,4.275957594530887,5.801835306863415,1.3767899410990798,0.30867554246630946,3.8181942808311273,45.016892513809424,-112.30109962767435
809,2.4449043397318513,5.038896450697152,-0.4542633136999553,0.6138510849328154,-1.5223777123327258,4.123369823297634,5.038896450697152,6.1070108493299236,10.226880672627749,6.259598620563175,0.0034999999998035487,2.1397287972653447,-0.4542633136999553,1.529377712332333,4.5811331369973916,5.4966597643969095,1.987141026032092,0.6138510849328154,3.6656065095978745,34.946099612414734,-111.84333631397463
812,1.529377712332333,3.2078431958981155,0.0034999999998035487,1.3767899410990798,-1.2172021698662199,4.886308679463898,4.886308679463898,5.3440719931636576,10.989819528794014,6.259598620563175,0.0034999999998035487,2.292316568498598,0.7664388561660683,2.1397287972653447,4.7337209082306435,5.3440719931636576,2.292316568498598,0.30867554246630946,4.123369823297634,35.55645069734773,-111.23298522904159
816,0.0034999999998035487,1.834553254798839,0.4612633136995624,0.9190266273993212,-1.369789941099473,4.886308679463898,4.886308679463898,4.886308679463898,10.989819528794014,6.259598620563175,-0.4542633136999553,1.834553254798839,1.3767899410990798,1.6819654835655862,4.428545365764139,5.6492475356301615,2.1397287972653447,-0.1490877712334494,4.886308679463898,43.33842703024364,-110.77522191534183
820,-0.1490877712334494,2.7500798821983556,0.4612633136995624,0.15608777123305648,-1.5223777123327258,4.123369823297634,5.191484221930403,5.038896450697152,9.921705130161246,5.954423078096669,-0.6068510849332083,1.6819654835655862,1.0716143986325743,-0.4542633136999553,3.97078205206438,5.954423078096669,1.987141026032092,-0.1490877712334494,4.7337209082306435,42.72807594531063,-110.77522191534183
824,-0.3016755424667024,4.275957594530887,0.4612633136995624,0.15608777123305648,-1.369789941099473,3.5130187383646216,5.4966597643969095,5.3440719931636576,8.853590731528476,5.191484221930403,-0.1490877712334494,1.529377712332333,0.4612633136995624,-1.827553254799232,4.123369823297634,5.954423078096669,1.834553254798839,0.0034999999998035487,3.6656065095978745,38.455618350779545,-110.77522191534183
828,-0.4542633136999553,4.428545365764139,0.30867554246630946,1.0716143986325743,-1.369789941099473,3.8181942808311273,5.954423078096669,5.3440719931636576,8.548415189061968,4.886308679463898,0.0034999999998035487,1.529377712332333,0.6138510849328154,0.0034999999998035487,4.428545365764139,5.3440719931636576,1.834553254798839,-0.1490877712334494,3.2078431958981155,37.69267949461328,-110.77522191534183
832,-0.1490877712334494,2.7500798821983556,0.4612633136995624,1.6819654835655862,-1.369789941099473,4.428545365764139,5.954423078096669,4.886308679463898,9.311354045228232,5.191484221930403,0.0034999999998035487,1.3767899410990798,0.7664388561660683,2.292316568498598,4.428545365764139,4.5811331369973916,2.1397287972653447,-0.1490877712334494,4.123369823297634,37.38750395214678,-110.4700463728753
836,-0.4542633136999553,1.2242021698658272,0.0034999999998035487,1.0716143986325743,-1.0646143986329673,4.123369823297634,5.191484221930403,4.428545365764139,9.463941816461489,5.038896450697152,-0.4542633136999553,0.9190266273993212,-0.9120266273997142,1.987141026032092,3.6656065095978745,4.5811331369973916,1.529377712332333,-0.3016755424667024,4.5811331369973916,38.150442808313045,-109.85969528794232
840,-0.9120266273997142,1.6819654835655862,-0.6068510849332083,-0.3016755424667024,-1.0646143986329673,2.9026676534316094,4.428545365764139,4.275957594530887,8.548415189061968,4.7337209082306435,-1.2172021698662199,0.4612633136995624,-1.827553254799232,0.30867554246630946,3.0552554246648627,5.038896450697152,0.7664388561660683,-0.3016755424667024,3.6656065095978745,41.2021982329781,-109.85969528794232
844,0.0034999999998035487,3.0552554246648627,-0.4542633136999553,-0.3016755424667024,-1.0646143986329673,2.9026676534316094,4.886308679463898,4.7337209082306435,7.632888561662451,4.7337209082306435,-0.9120266273997142,0.9190266273993212,-0.3016755424667024,0.6138510849328154,3.3604309671313684,5.191484221930403,1.2242021698658272,0.0034999999998035487,3.0552554246648627,41.354786004211356,-109.85969528794232
848,1.529377712332333,4.275957594530887,-0.1490877712334494,0.9190266273993212,-1.2172021698662199,3.8181942808311273,5.801835306863415,4.886308679463898,7.785476332895702,4.7337209082306435,0.0034999999998035487,1.6819654835655862,1.6819654835655862,1.6819654835655862,3.97078205206438,4.7337209082306435,2.1397287972653447,0.4612633136995624,3.3604309671313684,30.368466475417144,-109.5545197454758
852,1.529377712332333,3.97078205206438,0.15608777123305648,2.1397287972653447,-1.0646143986329673,4.7337209082306435,5.801835306863415,4.5811331369973916,8.395827417828716,4.275957594530887,0.4612633136995624,2.597492110965104,2.292316568498598,2.4449043397318513,3.8181942808311273,4.275957594530887,2.4449043397318513,0.6138510849328154,4.5811331369973916,-18.612208090457045,-109.24934420300931
855,0.7664388561660683,3.2078431958981155,0.7664388561660683,1.987141026032092,-1.2172021698662199,4.275957594530887,5.191484221930403,4.123369823297634,7.785476332895702,3.3604309671313684,0.6138510849328154,3.0552554246648627,1.6819654835655862,1.6819654835655862,3.0552554246648627,3.8181942808311273,2.1397287972653447,0.30867554246630946,5.038896450697152,-144.34453158665747,-109.09675643177604
859,0.9190266273993212,3.5130187383646216,1.3767899410990798,1.0716143986325743,-1.5223777123327258,3.2078431958981155,4.428545365764139,3.6656065095978745,5.954423078096669,1.987141026032092,0.6138510849328154,2.597492110965104,1.2242021698658272,-1.0646143986329673,2.292316568498598,3.3604309671313684,2.1397287972653447,-0.1490877712334494,4.123369823297634,-292.2020819116796,-109.24934420300931
863,1.2242021698658272,5.191484221930403,0.7664388561660683,1.3767899410990798,-1.369789941099473,2.7500798821983556,4.428545365764139,3.8181942808311273,4.5811331369973916,0.7664388561660683,0.7664388561660683,2.9026676534316094,1.2242021698658272,-2.5904921109654966,1.834553254798839,3.3604309671313684,2.4449043397318513,0.0034999999998035487,2.9026676534316094,-277.0958925595876,-109.24934420300931
867,0.9190266273993212,6.717361934262934,-0.3016755424667024,2.4449043397318513,-1.369789941099473,3.8181942808311273,5.038896450697152,4.886308679463898,4.7337209082306435,1.834553254798839,0.4612633136995624,4.428545365764139,-0.1490877712334494,1.3767899410990798,1.6819654835655862,5.038896450697152,2.4449043397318513,0.30867554246630946,3.2078431958981155,37.54009172338003,-109.09675643177604
871,0.6138510849328154,5.4966597643969095,-0.9120266273997142,3.2078431958981155,-2.132728797265738,5.3440719931636576,5.038896450697152,5.801835306863415,6.412186391796428,4.428545365764139,-1.674965483565979,5.4966597643969095,-2.743079882198749,6.412186391796428,1.2242021698658272,7.175125247962693,1.834553254798839,0.15608777123305648,3.6656065095978745,512.5458235724965,-108.6389931180763
875,-0.9120266273997142,2.9026676534316094,-1.369789941099473,2.4449043397318513,-2.285316568498991,5.4966597643969095,4.886308679463898,5.954423078096669,7.632888561662451,5.6492475356301615,-4.116369823298026,4.7337209082306435,-4.574133136997785,6.412186391796428,0.7664388561660683,7.938064104128956,0.7664388561660683,-0.3016755424667024,3.8181942808311273,789.0348650471507,-108.02864203314327
879,-2.132728797265738,1.987141026032092,-1.2172021698662199,0.9190266273993212,-1.5223777123327258,4.123369823297634,4.428545365764139,5.3440719931636576,7.175125247962693,4.275957594530887,-3.9637820520647726,2.7500798821983556,-3.6586065095982674,3.6656065095978745,0.9190266273993212,7.327713019195945,0.4612633136995624,0.0034999999998035487,4.5811331369973916,639.9566125522628,-108.3338175756098
883,-0.3016755424667024,3.5130187383646216,-0.3016755424667024,0.7664388561660683,-0.7594388561664611,3.3604309671313684,4.275957594530887,4.5811331369973916,6.1070108493299236,2.7500798821983556,-1.674965483565979,2.292316568498598,-1.2172021698662199,2.1397287972653447,1.987141026032092,5.6492475356301615,1.3767899410990798,0.4612633136995624,5.038896450697152,230.71621010467828,-108.79158088930954
887,1.834553254798839,4.886308679463898,0.6138510849328154,1.834553254798839,-0.1490877712334494,3.6656065095978745,4.5811331369973916,4.5811331369973916,5.4966597643969095,1.987141026032092,-0.1490877712334494,2.9026676534316094,0.4612633136995624,1.3767899410990798,3.6656065095978745,4.123369823297634,2.292316568498598,0.4612633136995624,4.886308679463898,-28.072649906918734,-108.6389931180763
891,0.7664388561660683,3.8181942808311273,0.7664388561660683,2.292316568498598,-0.3016755424667024,4.123369823297634,4.7337209082306435,4.428545365764139,5.801835306863415,2.1397287972653447,-0.1490877712334494,2.9026676534316094,0.6138510849328154,-0.3016755424667024,4.5811331369973916,3.0552554246648627,2.4449043397318513,0.30867554246630946,4.7337209082306435,5.801835306863415,-107.87605426191004
895,-0.6068510849332083,1.6819654835655862,0.4612633136995624,1.2242021698658272,-1.2172021698662199,4.123369823297634,4.7337209082306435,3.97078205206438,6.717361934262934,2.7500798821983556,-0.6068510849332083,2.1397287972653447,0.15608777123305648,-1.674965483565979,4.123369823297634,3.0552554246648627,2.1397287972653447,0.0034999999998035487,5.191484221930403,81.02760652485712,-107.57087871944351
898,0.4612633136995624,1.529377712332333,0.6138510849328154,0.6138510849328154,-1.369789941099473,3.6656065095978745,4.123369823297634,3.97078205206438,6.564774163029679,2.9026676534316094,-0.7594388561664611,1.6819654835655862,0.0034999999998035487,-0.9120266273997142,2.7500798821983556,3.5130187383646216,1.834553254798839,0.0034999999998035487,5.4966597643969095,55.240273186437356,-107.41829094821028
902,1.3767899410990798,2.9026676534316094,0.30867554246630946,0.7664388561660683,-0.9120266273997142,3.3604309671313684,3.6656065095978745,4.123369823297634,5.191484221930403,2.1397287972653447,-0.7594388561664611,1.529377712332333,0.0034999999998035487,1.2242021698658272,1.987141026032092,3.6656065095978745,1.6819654835655862,-0.3016755424667024,4.886308679463898,35.86162623981424,-107.26570317697704
906,1.3767899410990798,4.275957594530887,0.0034999999998035487,1.2242021698658272,-0.6068510849332083,3.5130187383646216,3.97078205206438,4.428545365764139,4.886308679463898,1.0716143986325743,-0.3016755424667024,1.834553254798839,-0.1490877712334494,2.1397287972653447,2.4449043397318513,3.2078431958981155,1.987141026032092,-0.4542633136999553,3.5130187383646216,58.29202861110243,-107.41829094821028
910,1.0716143986325743,3.97078205206438,0.4612633136995624,1.987141026032092,-0.3016755424667024,4.5811331369973916,4.7337209082306435,4.428545365764139,6.1070108493299236,1.3767899410990798,-0.1490877712334494,2.597492110965104,0.0034999999998035487,1.834553254798839,3.3604309671313684,2.7500798821983556,2.597492110965104,-0.4542633136999553,3.3604309671313684,59.0549674672687,-107.11311540574377
914,0.6138510849328154,2.4449043397318513,0.9190266273993212,2.292316568498598,0.15608777123305648,4.886308679463898,4.7337209082306435,3.97078205206438,6.869949705496186,2.1397287972653447,-0.7594388561664611,2.597492110965104,0.15608777123305648,1.529377712332333,3.0552554246648627,2.597492110965104,2.597492110965104,-0.1490877712334494,4.123369823297634,44.40654142887641,-106.80793986327727
918,0.0034999999998035487,2.1397287972653447,0.6138510849328154,1.529377712332333,0.30867554246630946,3.8181942808311273,3.97078205206438,3.3604309671313684,5.4966597643969095,2.1397287972653447,-1.2172021698662199,1.529377712332333,-0.1490877712334494,1.2242021698658272,1.834553254798839,2.7500798821983556,1.834553254798839,0.15608777123305648,4.5811331369973916,47.15312131107497,-107.11311540574377
922,0.15608777123305648,3.6656065095978745,0.7664388561660683,1.0716143986325743,0.0034999999998035487,2.9026676534316094,3.8181942808311273,3.3604309671313684,4.428545365764139,1.834553254798839,-0.6068510849332083,1.0716143986325743,0.0034999999998035487,0.9190266273993212,1.6819654835655862,3.2078431958981155,1.834553254798839,0.15608777123305648,4.428545365764139,52.03592999053907,-107.26570317697704
926,1.2242021698658272,4.7337209082306435,1.0716143986325743,1.3767899410990798,0.15608777123305648,3.3604309671313684,4.275957594530887,3.6656065095978745,5.191484221930403,1.529377712332333,0.30867554246630946,1.987141026032092,0.15608777123305648,0.7664388561660683,2.292316568498598,2.7500798821983556,2.4449043397318513,0.15608777123305648,4.428545365764139,45.77983136997569,-107.11311540574377
930,1.0716143986325743,3.8181942808311273,0.6138510849328154,2.1397287972653447,0.30867554246630946,4.275957594530887,4.428545365764139,3.5130187383646216,6.1070108493299236,1.2242021698658272,0.15608777123305648,2.292316568498598,0.15608777123305648,1.0716143986325743,2.292316568498598,2.1397287972653447,2.292316568498598,-0.1490877712334494,4.886308679463898,41.2021982329781,-106.50276432081075
934,0.0034999999998035487,2.1397287972653447,0.9190266273993212,2.1397287972653447,0.30867554246630946,4.5811331369973916,3.8181942808311273,3.2078431958981155,6.1070108493299236,1.6819654835655862,-0.6068510849332083,1.987141026032092,0.15608777123305648,1.3767899410990798,1.6819654835655862,2.292316568498598,1.987141026032092,-0.1490877712334494,5.3440719931636576,42.42290040284412,-106.35017654957753
938,-1.2172021698662199,1.529377712332333,1.6819654835655862,1.0716143986325743,0.15608777123305648,3.97078205206438,3.3604309671313684,3.5130187383646216,5.4966597643969095,2.1397287972653447,-0.7594388561664611,1.529377712332333,-0.4542633136999553,0.9190266273993212,0.9190266273993212,2.9026676534316094,2.292316568498598,-0.1490877712334494,4.886308679463898,41.507373775444606,-106.35017654957753
941,-1.674965483565979,2.7500798821983556,1.6819654835655862,0.30867554246630946,0.4612633136995624,3.3604309671313684,3.3604309671313684,3.6656065095978745,4.428545365764139,1.529377712332333,-0.4542633136999553,1.0716143986325743,-1.9801410260324848,-0.4542633136999553,0.4612633136995624,3.2078431958981155,2.7500798821983556,-0.1490877712334494,3.6656065095978745,38.3030305795463,-106.19758877834423
945,-0.1490877712334494,4.275957594530887,1.0716143986325743,0.7664388561660683,0.6138510849328154,3.0552554246648627,3.6656065095978745,3.5130187383646216,3.97078205206438,0.7664388561660683,-0.1490877712334494,0.9190266273993212,-2.5904921109654966,-2.743079882198749,0.6138510849328154,2.597492110965104,2.9026676534316094,0.0034999999998035487,2.9026676534316094,35.251275154881235,-106.50276432081075
949,1.987141026032092,4.123369823297634,0.9190266273993212,1.6819654835655862,0.4612633136995624,3.6656065095978745,4.275957594530887,3.6656065095978745,4.7337209082306435,1.2242021698658272,-0.1490877712334494,1.3767899410990798,-0.6068510849332083,-3.6586065095982674,1.6819654835655862,1.987141026032092,2.9026676534316094,0.15608777123305648,3.8181942808311273,31.131405331583405,-106.35017654957753
953,1.2242021698658272,2.597492110965104,1.0716143986325743,1.6819654835655862,0.0034999999998035487,4.428545365764139,4.5811331369973916,3.5130187383646216,5.6492475356301615,1.834553254798839,-0.3016755424667024,1.987141026032092,1.0716143986325743,-1.2172021698662199,1.6819654835655862,2.292316568498598,2.9026676534316094,0.15608777123305648,5.191484221930403,27.316711050752087,-106.045001007111
957,-1.369789941099473,1.3767899410990798,1.0716143986325743,0.7664388561660683,-0.6068510849332083,3.97078205206438,4.275957594530887,2.9026676534316094,5.3440719931636576,0.9190266273993212,-0.4542633136999553,1.3767899410990798,0.4612633136995624,1.2242021698658272,0.6138510849328154,2.597492110965104,2.597492110965104,-0.1490877712334494,5.038896450697152,26.401184423352564,-106.045001007111
961,-2.132728797265738,1.834553254798839,0.7664388561660683,-0.4542633136999553,-1.0646143986329673,2.4449043397318513,3.5130187383646216,2.4449043397318513,3.5130187383646216,-0.4542633136999553,-0.9120266273997142,0.15608777123305648,-1.0646143986329673,-0.4542633136999553,0.0034999999998035487,2.292316568498598,2.1397287972653447,-0.1490877712334494,4.123369823297634,26.55377219458581,-106.19758877834423
965,-0.9120266273997142,2.7500798821983556,0.30867554246630946,-0.4542633136999553,-1.827553254799232,1.6819654835655862,3.5130187383646216,2.597492110965104,2.9026676534316094,-0.7594388561664611,-1.0646143986329673,-0.1490877712334494,-0.9120266273997142,-3.5060187383650145,0.6138510849328154,1.3767899410990798,1.6819654835655862,0.15608777123305648,3.97078205206438,23.502016769920754,-106.35017654957753
969,0.4612633136995624,2.4449043397318513,0.30867554246630946,0.30867554246630946,-2.132728797265738,2.7500798821983556,3.97078205206438,2.7500798821983556,3.6656065095978745,-0.1490877712334494,-1.2172021698662199,0.7664388561660683,-0.4542633136999553,-2.5904921109654966,0.7664388561660683,1.0716143986325743,1.987141026032092,0.30867554246630946,4.275957594530887,17.245918149357387,-105.89241323587777
973,0.0034999999998035487,1.3767899410990798,0.9190266273993212,0.15608777123305648,-1.5223777123327258,3.8181942808311273,4.275957594530887,2.292316568498598,4.275957594530887,0.30867554246630946,-1.0646143986329673,1.3767899410990798,-0.9120266273997142,0.7664388561660683,0.30867554246630946,1.0716143986325743,2.7500798821983556,0.15608777123305648,4.428545365764139,11.600170613727029,-105.58723769341124
977,-0.7594388561664611,0.30867554246630946,1.3767899410990798,-0.6068510849332083,-1.0646143986329673,3.3604309671313684,3.6656065095978745,1.987141026032092,3.8181942808311273,0.4612633136995624,-0.7594388561664611,0.6138510849328154,-1.0646143986329673,1.529377712332333,0.0034999999998035487,1.2242021698658272,2.9026676534316094,0.0034999999998035487,4.5811331369973916,10.226880672627749,-105.73982546464448
980,-0.3016755424667024,0.30867554246630946,0.9190266273993212,-1.2172021698662199,-0.9120266273997142,2.1397287972653447,2.9026676534316094,1.6819654835655862,3.2078431958981155,-0.4542633136999553,-1.0646143986329673,-0.4542633136999553,-0.9120266273997142,-0.3016755424667024,0.0034999999998035487,1.529377712332333,1.987141026032092,-0.1490877712334494,4.5811331369973916,10.989819528794014,-105.89241323587777
984,0.6138510849328154,1.529377712332333,0.30867554246630946,-1.2172021698662199,-1.369789941099473,1.3767899410990798,2.9026676534316094,1.529377712332333,2.7500798821983556,-1.369789941099473,-1.2172021698662199,0.15608777123305648,-0.4542633136999553,-1.2172021698662199,0.15608777123305648,1.2242021698658272,1.6819654835655862,-0.1490877712334494,3.8181942808311273,8.548415189061968,-105.89241323587777
988,0.4612633136995624,2.7500798821983556,0.0034999999998035487,-0.7594388561664611,-1.827553254799232,1.529377712332333,3.6656065095978745,1.529377712332333,2.597492110965104,-1.369789941099473,-0.9120266273997142,1.0716143986325743,0.0034999999998035487,-1.0646143986329673,0.4612633136995624,0.4612633136995624,2.1397287972653447,-0.1490877712334494,3.5130187383646216,3.5130187383646216,-105.43464992217794
992,-0.6068510849332083,2.1397287972653447,0.15608777123305648,-0.3016755424667024,-1.674965483565979,2.4449043397318513,3.97078205206438,1.529377712332333,3.2078431958981155,-0.6068510849332083,-0.6068510849332083,1.2242021698658272,0.4612633136995624,-0.6068510849332083,1.0716143986325743,0.30867554246630946,2.9026676534316094,-0.3016755424667024,4.275957594530887,0.4612633136995624,-105.12947437971148
996,-0.7594388561664611,0.9190266273993212,1.0716143986325743,-0.4542633136999553,-0.7594388561664611,2.9026676534316094,3.6656065095978745,1.834553254798839,3.8181942808311273,-0.4542633136999553,-0.3016755424667024,0.9190266273993212,0.9190266273993212,-0.3016755424667024,1.3767899410990798,1.3767899410990798,3.2078431958981155,-0.4542633136999553,5.038896450697152,0.0034999999998035487,-104.97688660847822
1000,0.6138510849328154,1.529377712332333,1.6819654835655862,-0.9120266273997142,-0.3016755424667024,2.4449043397318513,3.6656065095978745,2.1397287972653447,3.0552554246648627,-1.0646143986329673,-0.7594388561664611,0.4612633136995624,0.9190266273993212,-0.3016755424667024,1.3767899410990798,2.1397287972653447,3.0552554246648627,-0.1490877712334494,5.038896450697152,-1.369789941099473,-104.97688660847822
1004,1.3767899410990798,3.6656065095978745,1.529377712332333,-0.4542633136999553,-0.6068510849332083,2.292316568498598,4.428545365764139,2.597492110965104,2.292316568498598,-1.674965483565979,-1.2172021698662199,0.7664388561660683,0.6138510849328154,-0.7594388561664611,1.529377712332333,1.834553254798839,2.9026676534316094,0.30867554246630946,4.7337209082306435,-5.642247535630556,-105.12947437971148
1008,0.4612633136995624,4.7337209082306435,1.834553254798839,0.9190266273993212,-0.9120266273997142,2.9026676534316094,5.3440719931636576,3.0552554246648627,3.0552554246648627,-1.369789941099473,-0.4542633136999553,1.529377712332333,0.7664388561660683,-0.7594388561664611,2.1397287972653447,1.3767899410990798,3.5130187383646216,0.4612633136995624,5.038896450697152,-10.219880672628143,-104.97688660847822
1012,0.30867554246630946,3.5130187383646216,2.597492110965104,1.3767899410990798,-0.9120266273997142,3.5130187383646216,5.3440719931636576,2.7500798821983556,4.275957594530887,-0.6068510849332083,-0.1490877712334494,1.834553254798839,1.2242021698658272,0.0034999999998035487,2.1397287972653447,1.529377712332333,3.97078205206438,0.0034999999998035487,5.3440719931636576,-12.813872783593444,-104.51912329477848
1016,1.6819654835655862,1.6819654835655862,2.4449043397318513,0.4612633136995624,-0.9120266273997142,3.3604309671313684,4.7337209082306435,2.1397287972653447,4.275957594530887,-0.6068510849332083,-0.6068510849332083,1.3767899410990798,0.9190266273993212,0.30867554246630946,1.2242021698658272,2.1397287972653447,3.3604309671313684,-0.4542633136999553,5.191484221930403,-13.271636097293205,-104.21394775231195
1020,2.292316568498598,1.529377712332333,1.3767899410990798,-0.7594388561664611,-1.2172021698662199,2.7500798821983556,3.97078205206438,2.292316568498598,3.3604309671313684,-1.2172021698662199,-0.4542633136999553,0.4612633136995624,0.4612633136995624,-0.3016755424667024,0.6138510849328154,2.9026676534316094,2.9026676534316094,-0.3016755424667024,4.7337209082306435,-13.424223868526454,-104.06135998107872
1023,2.4449043397318513,3.3604309671313684,1.3767899410990798,-0.6068510849332083,-0.9120266273997142,1.987141026032092,4.275957594530887,2.7500798821983556,2.4449043397318513,-1.0646143986329673,0.15608777123305648,0.4612633136995624,0.30867554246630946,-1.2172021698662199,1.0716143986325743,2.9026676534316094,2.9026676534316094,0.0034999999998035487,3.3604309671313684,-15.560452665791994,-104.06135998107872
1027,3.0552554246648627,4.428545365764139,1.529377712332333,0.4612633136995624,-0.6068510849332083,2.1397287972653447,4.5811331369973916,2.597492110965104,2.4449043397318513,-0.7594388561664611,0.4612633136995624,0.9190266273993212,-0.1490877712334494,-1.5223777123327258,1.529377712332333,2.4449043397318513,2.9026676534316094,0.4612633136995624,2.4449043397318513,-18.001857005524048,-103.90877220984548
1031,2.4449043397318513,3.2078431958981155,1.6819654835655862,0.9190266273993212,-0.7594388561664611,3.0552554246648627,4.428545365764139,1.834553254798839,2.7500798821983556,-0.9120266273997142,0.15608777123305648,1.0716143986325743,-1.369789941099473,-3.2008431958985084,0.9190266273993212,1.529377712332333,3.0552554246648627,0.0034999999998035487,3.0552554246648627,-19.83291026032308,-103.60359666737897
1035,0.7664388561660683,1.834553254798839,2.1397287972653447,-0.1490877712334494,-1.2172021698662199,3.5130187383646216,4.123369823297634,1.834553254798839,2.9026676534316094,-1.0646143986329673,0.0034999999998035487,0.7664388561660683,-1.9801410260324848,-6.710361934263327,0.30867554246630946,1.834553254798839,3.0552554246648627,-0.3016755424667024,3.6656065095978745,-21.20620020142236,-103.60359666737897
1039,1.3767899410990798,2.292316568498598,2.1397287972653447,-1.2172021698662199,-1.369789941099473,2.7500798821983556,4.123369823297634,1.834553254798839,2.7500798821983556,-1.0646143986329673,0.0034999999998035487,0.4612633136995624,-0.9120266273997142,-7.320713019196337,0.4612633136995624,3.0552554246648627,2.597492110965104,-0.4542633136999553,3.2078431958981155,-22.121726828821874,-103.45100889614568
1043,3.5130187383646216,3.8181942808311273,1.987141026032092,-0.9120266273997142,-1.2172021698662199,2.4449043397318513,4.428545365764139,1.834553254798839,2.4449043397318513,-1.369789941099473,0.15608777123305648,0.7664388561660683,1.0716143986325743,-2.285316568498991,1.0716143986325743,3.3604309671313684,2.292316568498598,-0.4542633136999553,3.0552554246648627,-23.189841227454647,-103.45100889614568
1047,3.97078205206438,4.5811331369973916,1.834553254798839,-0.1490877712334494,-0.9120266273997142,2.9026676534316094,5.038896450697152,2.4449043397318513,2.597492110965104,-1.5223777123327258,0.6138510849328154,1.0716143986325743,1.834553254798839,1.834553254798839,1.529377712332333,2.9026676534316094,2.4449043397318513,-0.4542633136999553,3.6656065095978745,-25.78383333841995,-103.29842112491244
1051,2.4449043397318513,3.5130187383646216,1.834553254798839,0.4612633136995624,-1.0646143986329673,3.2078431958981155,5.191484221930403,2.4449043397318513,3.0552554246648627,-1.2172021698662199,0.9190266273993212,0.7664388561660683,1.0716143986325743,0.7664388561660683,1.3767899410990798,2.4449043397318513,2.9026676534316094,-0.4542633136999553,3.5130187383646216,-28.377825449385238,-102.8406578112127
1055,1.2242021698658272,1.834553254798839,1.834553254798839,-0.3016755424667024,-1.5223777123327258,2.9026676534316094,4.275957594530887,1.6819654835655862,2.9026676534316094,-1.5223777123327258,0.0034999999998035487,0.30867554246630946,0.4612633136995624,-0.9120266273997142,0.7664388561660683,2.597492110965104,2.4449043397318513,-0.4542633136999553,3.3604309671313684,-29.14076430555151,-102.38289449751294
1059,1.6819654835655862,1.529377712332333,1.834553254798839,-1.0646143986329673,-1.674965483565979,2.1397287972653447,3.3604309671313684,1.0716143986325743,2.1397287972653447,-2.132728797265738,-0.4542633136999553,0.15608777123305648,0.15608777123305648,0.0034999999998035487,0.15608777123305648,3.0552554246648627,1.834553254798839,0.0034999999998035487,3.5130187383646216,-30.05629093295103,-102.23030672627968
1062,3.0552554246648627,3.0552554246648627,2.1397287972653447,-0.7594388561664611,-1.827553254799232,1.987141026032092,3.5130187383646216,1.6819654835655862,1.529377712332333,-2.743079882198749,0.4612633136995624,0.30867554246630946,0.30867554246630946,0.9190266273993212,0.15608777123305648,3.0552554246648627,2.1397287972653447,0.15608777123305648,3.3604309671313684,-31.429580874050302,-102.53548226874615
1066,3.8181942808311273,4.7337209082306435,2.292316568498598,0.0034999999998035487,-1.827553254799232,2.4449043397318513,4.275957594530887,1.987141026032092,1.2242021698658272,-3.2008431958985084,1.529377712332333,0.9190266273993212,0.7664388561660683,0.4612633136995624,0.4612633136995624,2.597492110965104,2.597492110965104,0.0034999999998035487,2.9026676534316094,-32.345107501449824,-102.53548226874615
1070,3.0552554246648627,4.275957594530887,2.1397287972653447,0.15608777123305648,-1.369789941099473,2.7500798821983556,4.7337209082306435,1.529377712332333,1.6819654835655862,-3.2008431958985084,1.529377712332333,1.529377712332333,0.9190266273993212,0.0034999999998035487,0.6138510849328154,1.987141026032092,2.4449043397318513,0.0034999999998035487,3.2078431958981155,-32.039931958983324,-102.38289449751294
1074,1.6819654835655862,2.597492110965104,2.1397287972653447,-0.1490877712334494,-0.6068510849332083,3.0552554246648627,4.275957594530887,1.3767899410990798,2.1397287972653447,-2.8956676534320023,0.6138510849328154,1.0716143986325743,0.4612633136995624,-0.1490877712334494,0.30867554246630946,2.292316568498598,1.834553254798839,0.0034999999998035487,4.123369823297634,-29.751115390484518,-101.92513118381315
1078,1.3767899410990798,2.597492110965104,2.4449043397318513,-0.4542633136999553,-0.3016755424667024,2.9026676534316094,3.6656065095978745,1.834553254798839,1.6819654835655862,-3.048255424665256,0.15608777123305648,0.4612633136995624,0.0034999999998035487,-0.4542633136999553,0.0034999999998035487,3.2078431958981155,1.529377712332333,0.15608777123305648,4.7337209082306435,-25.478657795953442,-101.61995564134666
1082,2.1397287972653447,3.97078205206438,2.597492110965104,-0.9120266273997142,-0.6068510849332083,2.4449043397318513,3.5130187383646216,1.6819654835655862,0.9190266273993212,-3.5060187383650145,0.6138510849328154,0.4612633136995624,-0.7594388561664611,-1.0646143986329673,-0.3016755424667024,3.5130187383646216,1.3767899410990798,0.15608777123305648,4.5811331369973916,-21.35878797265561,-101.61995564134666
1086,2.597492110965104,4.5811331369973916,2.4449043397318513,-0.6068510849332083,-0.9120266273997142,1.987141026032092,3.5130187383646216,1.3767899410990798,0.15608777123305648,-4.116369823298026,1.0716143986325743,0.7664388561660683,-1.369789941099473,-1.674965483565979,-0.4542633136999553,2.4449043397318513,1.3767899410990798,0.0034999999998035487,3.5130187383646216,-18.917383632923567,-101.77254341257992
1090,1.6819654835655862,3.8181942808311273,1.987141026032092,0.0034999999998035487,-1.2172021698662199,2.597492110965104,3.6656065095978745,1.3767899410990798,0.30867554246630946,-4.4215453657645325,0.7664388561660683,1.2242021698658272,-1.5223777123327258,-1.5223777123327258,-0.4542633136999553,1.6819654835655862,1.3767899410990798,-0.6068510849332083,2.597492110965104,-16.17080375072501,-101.31478009888016
1094,0.6138510849328154,2.4449043397318513,1.2242021698658272,0.0034999999998035487,-1.674965483565979,3.3604309671313684,3.5130187383646216,1.6819654835655862,0.9190266273993212,-4.4215453657645325,0.4612633136995624,1.0716143986325743,-1.0646143986329673,-0.7594388561664611,-0.1490877712334494,1.834553254798839,1.2242021698658272,-0.6068510849332083,2.9026676534316094,-11.898346156193927,-101.00960455641363
1098,1.834553254798839,1.834553254798839,1.0716143986325743,-0.6068510849332083,-1.369789941099473,2.9026676534316094,2.9026676534316094,1.6819654835655862,1.0716143986325743,-4.726720908231037,0.30867554246630946,0.4612633136995624,-0.4542633136999553,-0.7594388561664611,-0.3016755424667024,2.597492110965104,1.2242021698658272,-0.1490877712334494,3.5130187383646216,-8.388827417829111,-100.85701678518039
1102,3.5130187383646216,2.4449043397318513,1.3767899410990798,-0.9120266273997142,-1.2172021698662199,2.292316568498598,2.7500798821983556,1.6819654835655862,0.15608777123305648,-5.031896450697544,0.15608777123305648,0.6138510849328154,-0.3016755424667024,-1.674965483565979,-0.6068510849332083,2.7500798821983556,1.2242021698658272,0.0034999999998035487,2.9026676534316094,-8.541415189062361,-100.85701678518039
1105,3.8181942808311273,3.5130187383646216,1.3767899410990798,0.15608777123305648,-1.5223777123327258,2.7500798821983556,3.0552554246648627,1.529377712332333,-0.4542633136999553,-5.33707199316405,0.0034999999998035487,1.2242021698658272,-0.6068510849332083,-2.5904921109654966,-0.6068510849332083,1.834553254798839,1.2242021698658272,-0.1490877712334494,2.292316568498598,-11.135407300027662,-101.00960455641363
1109,3.0552554246648627,3.6656065095978745,1.3767899410990798,1.2242021698658272,-1.2172021698662199,3.6656065095978745,3.5130187383646216,1.529377712332333,0.15608777123305648,-5.031896450697544,0.15608777123305648,1.529377712332333,-0.9120266273997142,-2.8956676534320023,-0.4542633136999553,0.9190266273993212,1.2242021698658272,-0.3016755424667024,2.292316568498598,-13.57681163975971,-100.70442901394716
1113,2.1397287972653447,2.1397287972653447,1.3767899410990798,1.0716143986325743,-0.6068510849332083,3.5130187383646216,3.3604309671313684,1.3767899410990798,0.7664388561660683,-4.726720908231037,0.0034999999998035487,1.3767899410990798,-1.2172021698662199,-2.5904921109654966,-0.9120266273997142,0.6138510849328154,1.2242021698658272,-0.4542633136999553,2.7500798821983556,-15.102689352092238,-100.24666570024738
1117,1.3767899410990798,1.0716143986325743,1.0716143986325743,-0.3016755424667024,-0.9120266273997142,2.4449043397318513,2.597492110965104,0.7664388561660683,-0.1490877712334494,-5.642247535630556,-0.6068510849332083,0.4612633136995624,-2.5904921109654966,-2.132728797265738,-1.827553254799232,1.2242021698658272,0.7664388561660683,-0.6068510849332083,2.7500798821983556,-14.950101580858984,-100.09407792901413
1121,1.529377712332333,2.1397287972653447,1.2242021698658272,-0.9120266273997142,-1.369789941099473,1.834553254798839,2.597492110965104,0.7664388561660683,-1.5223777123327258,-6.557774163030072,-0.6068510849332083,0.15608777123305648,-2.8956676534320023,-3.6586065095982674,-2.132728797265738,1.529377712332333,0.7664388561660683,-0.1490877712334494,2.597492110965104,-15.560452665791994,-100.24666570024738
1125,2.7500798821983556,3.8181942808311273,1.529377712332333,-0.1490877712334494,-1.369789941099473,2.1397287972653447,3.2078431958981155,1.2242021698658272,-1.369789941099473,-6.710361934263327,0.15608777123305648,0.7664388561660683,-0.7594388561664611,-5.33707199316405,-1.2172021698662199,1.2242021698658272,1.2242021698658272,0.15608777123305648,2.292316568498598,-18.1544447767573,-100.55184124271388
1129,2.9026676534316094,3.8181942808311273,1.2242021698658272,0.6138510849328154,-1.674965483565979,2.7500798821983556,2.9026676534316094,1.3767899410990798,-0.4542633136999553,-6.710361934263327,0.30867554246630946,1.2242021698658272,0.9190266273993212,-2.743079882198749,-0.3016755424667024,0.30867554246630946,1.529377712332333,0.0034999999998035487,2.4449043397318513,-21.20620020142236,-100.39925347148063
1133,1.2242021698658272,1.834553254798839,1.0716143986325743,0.30867554246630946,-2.5904921109654966,3.2078431958981155,2.292316568498598,0.9190266273993212,-0.1490877712334494,-6.557774163030072,-0.4542633136999553,1.0716143986325743,0.0034999999998035487,0.30867554246630946,-0.7594388561664611,0.0034999999998035487,1.0716143986325743,-0.3016755424667024,3.2078431958981155,-23.037253456221393,-99.94149015778088
1137,-0.3016755424667024,0.15608777123305648,0.9190266273993212,-0.6068510849332083,-3.048255424665256,2.597492110965104,1.529377712332333,0.30867554246630946,-1.0646143986329673,-6.40518639179682,-1.0646143986329673,0.30867554246630946,-1.674965483565979,-0.9120266273997142,-1.827553254799232,0.6138510849328154,0.30867554246630946,-0.1490877712334494,3.8181942808311273,-23.189841227454647,-99.63631461531438
